
Integration time [ms]:   3.276
Averaging Nr. [scans]: 1000
Smoothing Nr. [pixels]: 0
Data measured with spectrometer [name]: 7414430SP
Wave   ;Sample   ;Dark     ;Reference
[nm]   ;[counts] ;[counts] ;[counts] 

288.544;  158.128;    7.793;  793.890
289.143;  161.010;    7.462;  681.602
289.742;  161.998;    8.602;  828.814
290.341;  149.560;    1.321;  789.841
290.940;  139.164;   -0.709;  730.702
291.538;  140.765;    0.881;  881.108
292.137;  140.889;    0.122;  792.581
292.736;  143.173;   -1.929;  975.101
293.335;  138.985;   -8.229;  735.086
293.934;  140.763;   -5.279;  781.677
294.532;  140.886;   -1.369; 1031.958
295.131;  127.123;   -7.641;  834.394
295.730;  126.294;   -8.420;  809.588
296.328;  124.165;   -5.611;  783.442
296.927;  123.459;   -5.781;  779.652
297.525;  124.344;   -6.361;  781.236
298.124;  116.605;  -11.382;  654.009
298.722;  120.610;   -7.641;  761.933
299.321;  117.109;   -6.811;  708.597
299.919;  114.365;   -6.991;  751.918
300.518;  110.403;  -10.362;  689.338
301.116;  113.423;   -9.581;  691.381
301.715;  114.215;   -4.891;  730.222
302.313;  112.062;   -8.801;  704.943
302.911;  107.334;   -8.522;  733.830
303.509;  112.299;   -6.171;  925.627
304.108;  110.025;   -7.311;  760.383
304.706;  110.340;   -8.321;  801.664
305.304;  104.217;  -10.222;  796.707
305.902;  108.663;   -6.021;  784.484
306.500;  104.130;   -4.971;  728.200
307.098;  103.870;   -7.061;  746.560
307.696;  102.155;   -8.801;  780.432
308.294;  101.834;   -6.411;  731.359
308.892;  103.953;   -2.901;  759.769
309.490;   99.962;   -5.041;  712.161
310.088;   97.466;   -5.002;  788.444
310.686;  102.044;   -2.041;  821.749
311.284;   98.403;   -2.351;  766.040
311.882;   95.321;   -4.422;  731.225
312.480;   92.564;   -4.192;  697.167
313.078;   93.329;   -1.172;  808.331
313.675;   94.413;   -2.601;  691.600
314.273;   88.590;   -1.312;  797.837
314.871;   87.633;   -3.942;  589.829
315.468;   86.545;   -2.802;  652.090
316.066;   89.999;   -0.701;  694.427
316.664;   82.331;   -4.362;  656.351
317.261;   86.671;   -2.872;  910.128
317.859;   82.138;   -2.022;  768.735
318.456;   82.484;   -0.531;  830.096
319.054;   78.848;   -3.912;  787.828
319.651;   76.894;   -4.752;  759.928
320.249;   76.170;   -2.602;  810.188
320.846;   73.227;   -0.821;  714.286
321.443;   71.094;   -4.642;  832.135
322.041;   68.806;   -5.002;  812.315
322.638;   65.314;   -3.982;  701.456
323.235;   67.126;   -3.411;  665.683
323.833;   64.087;   -7.361;  740.354
324.430;   58.996;   -8.611;  615.900
325.027;   60.384;   -4.061;  876.855
325.624;   60.908;   -4.031;  644.532
326.221;   56.706;   -7.481;  689.717
326.818;   56.200;   -5.281;  818.332
327.415;   59.173;   -7.460;  748.828
328.012;   58.934;   -5.510;  690.585
328.609;   56.848;   -7.880;  731.389
329.206;   55.326;   -8.331;  778.621
329.803;   56.294;   -5.121;  737.841
330.400;   58.001;   -4.510;  704.260
330.997;   59.387;   -6.441;  817.147
331.594;   57.018;   -8.831;  788.185
332.191;   62.507;   -7.621;  728.722
332.787;   67.277;   -4.591;  844.463
333.384;   65.992;   -7.412;  763.093
333.981;   65.673;   -8.293;  815.687
334.578;   68.248;   -7.052;  708.378
335.174;   70.428;   -3.102;  731.469
335.771;   69.113;   -5.943;  836.456
336.367;   65.854;   -7.393;  710.631
336.964;   71.334;   -4.063;  793.266
337.561;   69.128;   -3.813;  731.112
338.157;   64.961;   -4.654;  911.916
338.754;   63.290;   -7.934;  796.589
339.350;   60.934;   -4.414;  722.493
339.946;   63.486;   -4.664;  773.135
340.543;   55.758;   -6.375;  846.136
341.139;   49.243;   -9.815;  720.836
341.735;   45.982;   -4.526;  772.593
342.332;   45.916;   -4.895;  691.472
342.928;   45.495;   -4.295;  795.394
343.524;   39.190;   -5.476;  761.684
344.120;   36.111;   -5.856;  738.562
344.716;   38.782;   -2.155;  723.717
345.313;   36.380;   -6.275;  795.342
345.909;   30.487;   -8.815;  627.336
346.505;   31.786;   -5.305;  740.247
347.101;   32.306;   -2.674;  827.864
347.697;   32.593;   -4.344;  785.398
348.293;   28.053;   -9.975;  627.244
348.889;   29.016;   -5.774;  745.914
349.485;   28.662;   -5.004;  688.205
350.081;   29.327;   -4.704;  772.592
350.676;   23.622;   -6.635;  691.606
351.272;   28.337;   -4.504;  809.530
351.868;   27.734;   -3.914;  780.497
352.464;   24.820;   -9.044;  723.932
353.059;   21.134;   -8.314;  646.017
353.655;   24.502;   -7.024;  777.063
354.251;   25.748;   -5.343;  759.845
354.846;   20.424;   -8.604;  740.646
355.442;   18.262;   -6.945;  753.071
356.038;   19.802;   -7.564;  751.708
356.633;   19.964;   -5.814;  728.594
357.229;   18.062;   -7.364;  724.757
357.824;   15.792;   -8.024;  703.600
358.420;   14.842;   -9.384;  679.726
359.015;   15.741;   -5.104;  695.357
359.610;   15.943;   -6.854;  763.920
360.206;   10.167;  -10.185;  603.240
360.801;   13.023;   -7.054;  646.503
361.396;   15.900;   -5.034;  725.975
361.992;   10.802;   -8.284;  668.220
362.587;    7.490;   -8.625;  670.160
363.182;   10.067;   -7.674;  689.631
363.777;   10.910;   -5.164;  738.242
364.372;   10.122;   -8.604;  737.314
364.967;    6.977;   -9.055;  680.744
365.563;   10.074;   -6.114;  815.567
366.158;    8.450;   -5.814;  685.161
366.753;    8.213;   -7.854;  649.263
367.348;    6.724;   -7.804;  746.056
367.942;    5.977;   -7.954;  697.298
368.537;    6.040;   -4.984;  754.245
369.132;    5.818;   -8.564;  703.428
369.727;    1.486;   -8.855;  638.079
370.322;    3.186;   -6.245;  580.186
370.917;    3.214;   -6.425;  710.646
371.511;    5.385;   -6.294;  861.834
372.106;    1.743;   -7.685;  776.964
372.701;   -1.421;   -7.335;  585.988
373.296;    4.250;   -4.564;  863.135
373.890;    0.103;  -10.235;  647.840
374.485;   -2.246;   -7.885;  691.199
375.079;    1.281;   -7.324;  738.685
375.674;    2.943;   -3.494;  812.970
376.268;   -1.103;   -8.525;  691.759
376.863;   -7.301;  -10.086;  580.327
377.457;   -0.656;   -7.025;  662.490
378.052;   -2.441;   -3.585;  764.884
378.646;   -4.048;   -7.595;  741.167
379.240;   -4.738;   -8.335;  721.176
379.835;   -2.783;   -5.785;  636.978
380.429;   -5.313;   -4.335;  562.557
381.023;   -4.987;   -6.805;  779.205
381.617;   -7.195;   -9.195;  680.106
382.212;   -4.137;   -6.905;  685.303
382.806;   -3.107;   -3.745;  760.690
383.400;   -7.608;   -7.745;  672.281
383.994;   -8.604;   -9.765;  664.870
384.588;   -4.900;   -6.564;  697.701
385.182;   -3.183;   -5.344;  726.624
385.776;   -5.359;   -8.514;  706.875
386.370;   -9.087;   -9.555;  681.968
386.964;   -7.296;   -8.715;  684.155
387.558;   -5.458;   -6.174;  598.360
388.152;  -10.047;   -8.725;  681.959
388.745;   -7.267;   -7.965;  814.707
389.339;   -5.881;   -5.924;  747.642
389.933;   -4.974;   -5.524;  695.370
390.527;   -5.994;   -7.114;  859.029
391.120;  -12.437;  -10.725;  595.318
391.714;   -8.854;   -8.035;  711.633
392.308;   -6.316;   -3.574;  780.253
392.901;   -9.876;   -7.245;  642.460
393.495;  -11.120;   -9.285;  595.414
394.089;   -8.904;   -5.895;  760.452
394.682;   -9.329;   -4.295;  697.188
395.275;  -10.608;   -9.875;  719.927
395.869;  -11.562;   -8.485;  667.314
396.462;  -10.550;   -7.455;  616.609
397.056;   -5.767;   -5.424;  776.621
397.649;  -10.958;   -6.605;  731.575
398.242;   -7.751;   -8.224;  712.645
398.836;   -7.677;   -7.474;  766.408
399.429;   -8.533;   -7.094;  631.041
400.022;  -12.475;   -9.475;  665.902
400.615;   -9.799;   -7.145;  805.609
401.208;   -7.555;   -7.174;  691.451
401.802;   -9.927;   -5.515;  699.329
402.395;  -11.066;   -9.875;  683.502
402.988;  -12.210;   -8.845;  696.627
403.581;   -8.271;   -8.874;  646.878
404.174;   -6.545;   -5.324;  686.568
404.767;   -9.799;   -9.575;  638.583
405.360;  -12.109;  -10.965;  621.445
405.953;   -6.242;   -8.764;  759.034
406.545;   -5.717;   -7.514;  725.342
407.138;   -9.788;  -10.025;  618.350
407.731;   -9.122;  -10.034;  613.303
408.324;   -5.149;   -9.374;  660.554
408.917;   -4.879;   -6.534;  681.864
409.509;   -7.688;   -8.004;  740.396
410.102;   -9.998;   -9.875;  643.948
410.695;   -3.560;   -8.604;  665.758
411.287;   -4.303;   -6.794;  599.821
411.880;   -6.559;   -9.334;  585.421
412.472;   -8.412;  -10.254;  613.092
413.065;   -6.030;   -6.714;  629.408
413.657;   -3.607;   -7.234;  576.678
414.250;   -3.831;  -10.544;  646.681
414.842;   -6.077;   -9.744;  676.353
415.434;   -3.434;   -6.994;  570.463
416.027;    0.522;   -5.893;  652.196
416.619;   -1.407;   -7.264;  713.400
417.211;   -1.971;  -10.374;  599.352
417.804;    2.057;   -7.993;  628.499
418.396;   -1.785;   -7.234;  607.643
418.988;    0.173;   -9.443;  659.238
419.580;   -3.464;  -10.724;  568.276
420.172;   -0.489;  -10.323;  536.196
420.764;    3.299;   -8.793;  672.482
421.356;    2.351;  -11.143;  636.898
421.948;    0.695;   -8.293;  677.661
422.540;    6.286;   -7.893;  680.027
423.132;    5.895;   -7.082;  600.641
423.724;    2.134;   -8.653;  561.267
424.316;    4.509;  -10.213;  621.345
424.908;    7.652;   -9.762;  591.517
425.500;    8.665;   -5.572;  647.978
426.092;    9.062;   -8.422;  648.268
426.683;    7.581;   -9.283;  684.836
427.275;   10.767;   -7.852;  641.471
427.867;   11.884;   -5.272;  668.948
428.458;   13.316;   -7.682;  732.344
429.050;   11.389;  -10.612;  680.749
429.642;   13.373;   -9.882;  743.124
430.233;   14.586;   -6.962;  569.356
430.825;   15.040;   -6.842;  724.809
431.416;   13.105;   -9.672;  698.241
432.008;   16.926;   -6.552;  651.723
432.599;   17.754;   -6.891;  656.073
433.190;   13.894;  -10.912;  637.670
433.782;   13.452;  -11.172;  590.395
434.373;   21.485;   -6.061;  884.765
434.964;   20.027;   -8.251;  602.920
435.556;   17.138;   -9.722;  634.537
436.147;   19.915;   -9.082;  758.490
436.738;   19.924;   -8.041;  701.099
437.329;   25.655;   -7.341;  721.723
437.920;   19.474;   -8.162;  666.688
438.511;   18.797;  -11.802;  564.526
439.103;   25.608;  -10.191;  623.998
439.694;   26.993;   -7.601;  681.583
440.285;   27.844;   -8.541;  764.432
440.876;   26.442;   -9.751;  845.738
441.466;   25.133;   -9.401;  575.162
442.057;   31.417;   -7.760;  665.814
442.648;   29.819;   -9.971;  746.255
443.239;   28.088;  -11.001;  620.477
443.830;   33.435;   -7.990;  704.958
444.421;   35.132;   -7.910;  655.474
445.011;   31.196;   -8.131;  693.619
445.602;   30.768;   -7.111;  743.126
446.193;   33.436;  -10.920;  488.117
446.783;   37.366;   -6.500;  640.397
447.374;   32.049;   -8.671;  692.759
447.964;   33.436;  -10.781;  713.770
448.555;   42.093;   -9.650;  822.742
449.145;   38.385;   -8.660;  662.853
449.736;   39.627;   -8.990;  803.179
450.326;   39.322;   -9.500;  713.626
450.917;   44.379;   -8.680;  675.324
451.507;   44.656;   -7.520;  600.661
452.097;   44.429;   -8.590;  746.267
452.688;   45.472;  -11.340;  742.160
453.278;   45.675;  -10.100;  566.840
453.868;   49.324;   -6.019;  793.550
454.458;   47.918;   -9.440;  651.141
455.048;   48.830;  -10.560;  711.783
455.639;   49.591;  -11.799;  567.096
456.229;   54.235;   -6.899;  710.694
456.819;   55.008;   -7.389;  751.158
457.409;   55.308;  -11.119;  773.993
457.999;   59.294;   -9.289;  737.505
458.589;   58.893;   -6.139;  686.606
459.179;   57.962;   -8.729;  717.658
459.769;   56.844;   -9.789;  627.099
460.358;   62.036;  -10.259;  797.262
460.948;   61.421;   -7.299;  689.503
461.538;   63.450;  -10.289;  660.677
462.128;   60.577;  -11.269;  664.934
462.717;   68.263;   -9.368;  710.326
463.307;   71.176;   -7.908;  705.846
463.897;   66.948;   -9.599;  656.942
464.486;   66.149;   -9.769;  837.128
465.076;   70.884;   -8.048;  733.776
465.666;   74.182;   -9.358;  652.900
466.255;   72.324;   -7.919;  785.651
466.845;   70.966;  -11.689;  666.749
467.434;   73.914;   -7.818;  725.873
468.023;   76.103;   -7.678;  658.357
468.613;   73.614;  -10.939;  713.946
469.202;   76.602;  -10.118;  646.507
469.791;   81.776;   -9.108;  737.811
470.381;   84.084;   -6.058;  742.813
470.970;   83.153;  -10.428;  711.099
471.559;   83.414;  -10.268;  733.291
472.148;   86.599;   -8.448;  675.737
472.738;   89.382;   -6.917;  765.466
473.327;   89.817;  -11.978;  637.529
473.916;   88.466;  -11.888;  737.446
474.505;   92.463;   -9.437;  751.703
475.094;   96.019;   -6.747;  806.570
475.683;   95.286;   -9.367;  797.699
476.272;   96.560;  -12.637;  730.632
476.861;   99.360;  -10.027;  706.754
477.449;  106.101;   -8.716;  728.487
478.038;   99.943;   -9.577;  692.513
478.627;  101.918;   -9.718;  714.852
479.216;  108.185;   -8.947;  769.441
479.805;  111.981;   -6.256;  783.375
480.393;  111.454;   -7.937; 1008.945
480.982;  110.313;   -7.717;  874.501
481.571;  117.675;   -9.266;  858.333
482.159;  118.076;   -7.636;  705.386
482.748;  117.996;   -9.667;  821.385
483.336;  122.257;  -10.376;  858.209
483.925;  123.402;   -7.147;  774.373
484.513;  130.509;   -7.996;  758.962
485.102;  127.539;  -10.027;  810.965
485.690;  136.559;  -10.446; 1011.050
486.278;  138.701;   -8.446;  979.329
486.867;  140.255;   -6.356;  809.662
487.455;  142.284;   -9.136;  898.229
488.043;  142.742;  -10.646;  748.361
488.631;  153.249;   -7.456; 1005.079
489.220;  157.033;   -6.636;  908.626
489.808;  157.883;  -11.036;  741.415
490.396;  167.523;  -10.246;  914.645
490.984;  175.073;   -8.556;  830.161
491.572;  187.385;   -5.886;  940.315
492.160;  196.663;   -9.486;  919.081
492.748;  211.353;  -10.976;  884.341
493.336;  236.097;   -8.776; 1019.693
493.924;  269.020;   -5.465;  958.077
494.512;  308.094;   -9.986; 1066.638
495.100;  363.431;  -10.636; 1103.280
495.687;  432.098;  -10.885; 1206.373
496.275;  493.793;   -8.126; 1150.796
496.863;  570.135;  -10.586; 1281.171
497.451;  699.723;  -11.926; 1386.805
498.038;  823.216;  -10.885; 1556.729
498.626;  928.278;   -6.315; 1741.407
499.214; 1094.423;   -7.326; 2016.609
499.801; 1342.821;  -11.906; 2220.633
500.389; 1628.310;  -10.466; 2312.494
500.976; 1901.613;   -5.236; 2744.849
501.564; 2366.230;   -8.936; 3148.565
502.151; 2866.176;  -13.176; 3515.999
502.738; 3460.284;  -10.646; 3971.274
503.326; 3886.443;   -9.525; 4403.796
503.913; 4223.875;  -10.856; 5161.749
504.500; 4788.725;  -11.586; 5986.420
505.088; 5095.010;  -10.336; 6381.201
505.675; 5594.812;   -6.355; 6925.547
506.262; 6098.284;   -9.046; 7619.060
506.849; 6678.999;  -10.416; 8733.969
507.436; 7278.820;  -10.305; 9790.121
508.023; 7795.834;   -5.496; 9985.472
508.610; 8668.814;   -7.856;10434.618
509.197;10056.616;  -10.097;11198.435
509.784;11665.162;  -10.886;12391.194
510.371;13132.767;   -9.315;13603.713
510.958;14078.483;   -9.936;14426.586
511.545;14841.383;   -9.326;15243.775
512.132;15418.692;  -10.075;15945.876
512.719;15596.716;   -7.796;16340.369
513.305;16592.131;  -10.606;18011.766
513.892;18004.852;  -11.486;19754.971
514.479;19842.240;   -9.126;20967.805
515.066;21533.809;   -6.026;22299.793
515.652;21743.559;   -8.466;22908.660
516.239;22879.811;  -10.886;23798.875
516.825;25423.779;  -11.496;25567.275
517.412;27801.273;   -5.796;28154.959
517.998;29890.162;  -10.506;28344.111
518.585;29369.873;  -10.076;27134.219
519.171;27920.734;   -8.315;27268.576
519.758;29052.531;   -8.596;28964.129
520.344;30400.500;   -8.466;30664.494
520.930;33039.035;  -11.006;32550.605
521.516;33451.016;  -10.495;35422.895
522.103;31816.307;   -5.526;38280.004
522.689;32439.146;   -8.746;37835.117
523.275;34099.270;  -11.376;37288.613
523.861;36305.965;  -11.156;37281.395
524.447;39984.258;   -8.135;37846.949
525.033;40939.680;   -7.896;38321.949
525.619;40532.996;  -12.476;38579.285
526.205;40698.617;   -9.516;40622.875
526.791;40424.828;   -6.926;42258.836
527.377;41443.676;   -8.346;42966.902
527.963;42834.543;   -8.717;42018.949
528.549;41720.305;  -11.016;42476.828
529.135;42169.871;   -8.536;41854.852
529.721;41992.383;   -9.666;41237.711
530.306;40289.277;  -10.066;41259.445
530.892;40190.133;  -11.356;41506.047
531.478;39600.344;   -6.596;43559.613
532.063;40143.617;   -8.836;47695.563
532.649;43763.621;  -10.047;50808.324
533.235;45003.703;   -9.746;51787.500
533.820;44299.781;   -6.566;52145.035
534.406;43406.555;  -10.817;51133.488
534.991;46351.309;   -9.416;49996.805
535.576;47454.621;   -9.036;48882.852
536.162;47547.820;   -6.156;46942.285
536.747;49101.996;  -11.607;45711.746
537.333;49623.324;  -11.787;48510.180
537.918;49921.461;  -12.437;50439.891
538.503;51109.633;   -7.196;50863.711
539.088;48484.840;  -10.556;50906.922
539.673;46871.992;   -8.767;52621.965
540.259;48033.777;  -10.026;52368.094
540.844;50016.840;   -7.416;50879.109
541.429;49043.355;   -9.467;52077.777
542.014;48780.582;   -9.527;52716.695
542.599;51084.027;   -9.946;52363.281
543.184;53499.465;   -7.927;53187.137
543.769;51647.969;   -9.297;54697.605
544.354;48317.582;  -10.127;53913.914
544.938;46733.551;   -9.267;49680.164
545.523;48981.883;   -6.506;47386.277
546.108;52428.730;   -9.787;49151.949
546.693;51880.078;  -11.587;51384.637
547.278;51881.992;  -10.986;51853.254
547.862;48803.148;   -8.206;51173.750
548.447;45954.723;  -10.067;51691.395
549.031;46720.539;   -9.637;52456.703
549.616;47729.461;   -9.926;52714.516
550.201;46604.695;   -6.347;52414.598
550.785;46164.016;   -7.917;52355.059
551.370;47630.742;  -10.867;54589.453
551.954;48513.281;   -9.047;58267.348
552.538;49326.625;   -7.827;59062.176
553.123;49059.785;  -10.287;58115.285
553.707;44965.855;  -12.178;56556.285
554.291;45703.914;   -8.717;56201.668
554.876;48859.625;   -7.457;55335.762
555.460;49835.852;  -10.387;54155.703
556.044;50921.051;   -9.618;53721.484
556.628;49882.648;  -11.567;53731.016
557.212;47715.973;   -8.097;54312.531
557.796;49222.035;  -11.077;53797.773
558.380;47272.023;  -11.108;56145.984
558.964;45899.371;   -9.057;57277.930
559.548;45596.863;   -6.977;56459.641
560.132;44422.992;  -11.457;54434.543
560.716;43604.008;  -11.378;54800.617
561.300;44444.227;   -9.577;57606.945
561.884;46365.703;   -7.127;58972.445
562.467;47215.297;   -7.118;57327.570
563.051;46556.305;  -13.358;54962.434
563.635;44105.113;  -10.178;52594.473
564.219;43401.875;   -7.837;50610.410
564.802;43091.949;  -11.398;49551.180
565.386;44422.609;  -12.788;48370.953
565.969;45316.453;   -9.077;48178.871
566.553;45478.164;   -6.207;49957.305
567.136;42608.602;   -8.568;50369.594
567.720;41720.766;  -11.868;49492.004
568.303;41536.922;   -8.268;50616.352
568.887;40482.797;   -8.698;50727.148
569.470;40778.980;   -6.808;51698.379
570.053;39346.012;  -13.188;52122.078
570.637;37888.082;  -12.037;52536.438
571.220;37147.395;   -8.577;51186.098
571.803;37663.480;   -8.498;51032.762
572.386;40420.594;  -10.498;49609.887
572.969;41920.203;   -9.388;48285.926
573.552;38185.148;   -8.338;47624.285
574.135;36092.355;   -8.518;45498.641
574.718;32666.471;  -13.628;41970.434
575.301;32252.371;  -10.893;41447.137
575.884;31838.270;   -8.158;40923.836
576.467;37027.383;  -10.328;45267.723
577.050;35574.320;  -13.058;48175.543
577.633;34810.590;   -9.458;47729.328
578.216;36563.559;   -8.928;47579.793
578.799;37232.383;   -9.358;47820.996
579.381;36407.789;  -11.388;48115.551
579.964;33501.043;  -11.718;47333.766
580.547;33329.641;   -8.588;46668.969
581.129;34904.348;   -8.859;44466.141
581.712;35160.543;  -10.729;44164.922
582.294;36549.766;  -11.118;46477.855
582.877;34292.969;   -5.218;48244.254
583.459;34208.605;   -8.679;47437.895
584.042;36155.488;  -10.709;46943.219
584.624;38196.969;  -11.669;46792.227
585.206;37027.391;   -8.218;46557.250
585.789;35822.070;  -10.569;45793.773
586.371;36296.730;  -11.859;43836.391
586.953;34946.883;  -10.719;42972.492
587.536;36983.555;   -7.198;42487.211
588.118;38379.438;   -8.720;42086.414
588.700;37513.801;  -10.439;43389.930
589.282;37577.617;   -9.198;43646.039
589.864;36319.941;   -9.199;43438.109
590.446;34105.129;  -11.319;43151.926
591.028;33731.184;  -11.159;42781.867
591.610;33487.598;  -11.779;42839.098
592.192;30385.691;   -7.668;42820.402
592.774;31059.408;  -11.949;40724.277
593.356;32013.143;  -12.129;39874.789
593.937;29746.145;  -10.669;39980.648
594.519;31209.811;   -6.509;42069.633
595.101;33225.043;  -10.849;42976.031
