
Integration time [ms]:   3.276
Averaging Nr. [scans]: 1000
Smoothing Nr. [pixels]: 0
Data measured with spectrometer [name]: 7414430SP
Wave   ;Sample   ;Dark     ;Reference
[nm]   ;[counts] ;[counts] ;[counts] 

288.544;  150.816;    7.793;  793.890
289.143;  153.927;    7.462;  681.602
289.742;  154.970;    8.602;  828.814
290.341;  140.378;    1.321;  789.841
290.940;  129.005;   -0.709;  730.702
291.538;  130.156;    0.881;  881.108
292.137;  130.511;    0.122;  792.581
292.736;  135.554;   -1.929;  975.101
293.335;  130.935;   -8.229;  735.086
293.934;  131.142;   -5.279;  781.677
294.532;  129.518;   -1.369; 1031.958
295.131;  116.630;   -7.641;  834.394
295.730;  116.949;   -8.420;  809.588
296.328;  115.152;   -5.611;  783.442
296.927;  116.092;   -5.781;  779.652
297.525;  118.367;   -6.361;  781.236
298.124;  107.535;  -11.382;  654.009
298.722;  110.648;   -7.641;  761.933
299.321;  108.803;   -6.811;  708.597
299.919;  107.688;   -6.991;  751.918
300.518;  104.670;  -10.362;  689.338
301.116;  105.479;   -9.581;  691.381
301.715;  104.885;   -4.891;  730.222
302.313;  105.063;   -8.801;  704.943
302.911;  100.466;   -8.522;  733.830
303.509;  104.658;   -6.171;  925.627
304.108;  102.336;   -7.311;  760.383
304.706;  102.868;   -8.321;  801.664
305.304;   97.348;  -10.222;  796.707
305.902;  100.968;   -6.021;  784.484
306.500;   97.447;   -4.971;  728.200
307.098;   97.586;   -7.061;  746.560
307.696;   93.361;   -8.801;  780.432
308.294;   94.534;   -6.411;  731.359
308.892;   96.765;   -2.901;  759.769
309.490;   93.844;   -5.041;  712.161
310.088;   91.399;   -5.002;  788.444
310.686;   93.853;   -2.041;  821.749
311.284;   90.117;   -2.351;  766.040
311.882;   89.237;   -4.422;  731.225
312.480;   85.768;   -4.192;  697.167
313.078;   86.392;   -1.172;  808.331
313.675;   87.940;   -2.601;  691.600
314.273;   84.021;   -1.312;  797.837
314.871;   82.484;   -3.942;  589.829
315.468;   79.555;   -2.802;  652.090
316.066;   83.006;   -0.701;  694.427
316.664;   76.879;   -4.362;  656.351
317.261;   80.460;   -2.872;  910.128
317.859;   75.449;   -2.022;  768.735
318.456;   75.528;   -0.531;  830.096
319.054;   72.575;   -3.912;  787.828
319.651;   71.537;   -4.752;  759.928
320.249;   69.468;   -2.602;  810.188
320.846;   66.876;   -0.821;  714.286
321.443;   65.635;   -4.642;  832.135
322.041;   62.071;   -5.002;  812.315
322.638;   58.680;   -3.982;  701.456
323.235;   60.863;   -3.411;  665.683
323.833;   59.138;   -7.361;  740.354
324.430;   54.126;   -8.611;  615.900
325.027;   53.979;   -4.061;  876.855
325.624;   53.761;   -4.031;  644.532
326.221;   51.807;   -7.481;  689.717
326.818;   50.907;   -5.281;  818.332
327.415;   54.179;   -7.460;  748.828
328.012;   52.913;   -5.510;  690.585
328.609;   52.803;   -7.880;  731.389
329.206;   50.716;   -8.331;  778.621
329.803;   49.876;   -5.121;  737.841
330.400;   53.452;   -4.510;  704.260
330.997;   55.003;   -6.441;  817.147
331.594;   53.183;   -8.831;  788.185
332.191;   57.608;   -7.621;  728.722
332.787;   61.018;   -4.591;  844.463
333.384;   60.070;   -7.412;  763.093
333.981;   58.177;   -8.293;  815.687
334.578;   60.600;   -7.052;  708.378
335.174;   63.850;   -3.102;  731.469
335.771;   64.012;   -5.943;  836.456
336.367;   59.601;   -7.393;  710.631
336.964;   63.080;   -4.063;  793.266
337.561;   62.130;   -3.813;  731.112
338.157;   58.264;   -4.654;  911.916
338.754;   55.847;   -7.934;  796.589
339.350;   52.378;   -4.414;  722.493
339.946;   55.605;   -4.664;  773.135
340.543;   48.002;   -6.375;  846.136
341.139;   42.338;   -9.815;  720.836
341.735;   38.920;   -4.526;  772.593
342.332;   37.965;   -4.895;  691.472
342.928;   39.961;   -4.295;  795.394
343.524;   33.165;   -5.476;  761.684
344.120;   28.432;   -5.856;  738.562
344.716;   31.954;   -2.155;  723.717
345.313;   30.826;   -6.275;  795.342
345.909;   25.244;   -8.815;  627.336
346.505;   26.616;   -5.305;  740.247
347.101;   27.359;   -2.674;  827.864
347.697;   27.708;   -4.344;  785.398
348.293;   22.378;   -9.975;  627.244
348.889;   22.238;   -5.774;  745.914
349.485;   22.055;   -5.004;  688.205
350.081;   23.830;   -4.704;  772.592
350.676;   18.516;   -6.635;  691.606
351.272;   21.829;   -4.504;  809.530
351.868;   21.558;   -3.914;  780.497
352.464;   19.805;   -9.044;  723.932
353.059;   15.849;   -8.314;  646.017
353.655;   18.458;   -7.024;  777.063
354.251;   19.232;   -5.343;  759.845
354.846;   14.892;   -8.604;  740.646
355.442;   13.058;   -6.945;  753.071
356.038;   13.938;   -7.564;  751.708
356.633;   14.195;   -5.814;  728.594
357.229;   13.024;   -7.364;  724.757
357.824;   11.255;   -8.024;  703.600
358.420;    8.730;   -9.384;  679.726
359.015;   10.141;   -5.104;  695.357
359.610;   11.837;   -6.854;  763.920
360.206;    5.999;  -10.185;  603.240
360.801;    7.731;   -7.054;  646.503
361.396;   10.741;   -5.034;  725.975
361.992;    6.079;   -8.284;  668.220
362.587;    3.508;   -8.625;  670.160
363.182;    4.945;   -7.674;  689.631
363.777;    5.329;   -5.164;  738.242
364.372;    6.269;   -8.604;  737.314
364.967;    2.061;   -9.055;  680.744
365.563;    5.421;   -6.114;  815.567
366.158;    2.800;   -5.814;  685.161
366.753;    3.438;   -7.854;  649.263
367.348;    2.230;   -7.804;  746.056
367.942;    1.533;   -7.954;  697.298
368.537;    1.015;   -4.984;  754.245
369.132;    1.375;   -8.564;  703.428
369.727;   -2.884;   -8.855;  638.079
370.322;   -2.094;   -6.245;  580.186
370.917;   -1.857;   -6.425;  710.646
371.511;    1.263;   -6.294;  861.834
372.106;   -2.414;   -7.685;  776.964
372.701;   -6.815;   -7.335;  585.988
373.296;   -0.291;   -4.564;  863.135
373.890;   -4.605;  -10.235;  647.840
374.485;   -6.435;   -7.885;  691.199
375.079;   -3.521;   -7.324;  738.685
375.674;   -1.574;   -3.494;  812.970
376.268;   -5.125;   -8.525;  691.759
376.863;  -12.235;  -10.086;  580.327
377.457;   -6.211;   -7.025;  662.490
378.052;   -7.730;   -3.585;  764.884
378.646;   -7.647;   -7.595;  741.167
379.240;   -8.582;   -8.335;  721.176
379.835;   -7.919;   -5.785;  636.978
380.429;   -9.543;   -4.335;  562.557
381.023;   -9.448;   -6.805;  779.205
381.617;  -12.787;   -9.195;  680.106
382.212;   -8.577;   -6.905;  685.303
382.806;   -7.687;   -3.745;  760.690
383.400;  -11.449;   -7.745;  672.281
383.994;  -13.125;   -9.765;  664.870
384.588;   -9.710;   -6.564;  697.701
385.182;   -8.496;   -5.344;  726.624
385.776;   -8.602;   -8.514;  706.875
386.370;  -12.993;   -9.555;  681.968
386.964;  -12.070;   -8.715;  684.155
387.558;   -9.956;   -6.174;  598.360
388.152;  -12.376;   -8.725;  681.959
388.745;  -11.546;   -7.965;  814.707
389.339;  -10.090;   -5.924;  747.642
389.933;   -8.603;   -5.524;  695.370
390.527;   -9.144;   -7.114;  859.029
391.120;  -16.006;  -10.725;  595.318
391.714;  -13.663;   -8.035;  711.633
392.308;  -10.255;   -3.574;  780.253
392.901;  -13.565;   -7.245;  642.460
393.495;  -15.671;   -9.285;  595.414
394.089;  -14.555;   -5.895;  760.452
394.682;  -14.488;   -4.295;  697.188
395.275;  -14.497;   -9.875;  719.927
395.869;  -15.762;   -8.485;  667.314
396.462;  -14.980;   -7.455;  616.609
397.056;  -10.996;   -5.424;  776.621
397.649;  -14.688;   -6.605;  731.575
398.242;  -13.086;   -8.224;  712.645
398.836;  -12.136;   -7.474;  766.408
399.429;  -13.145;   -7.094;  631.041
400.022;  -15.925;   -9.475;  665.902
400.615;  -13.253;   -7.145;  805.609
401.208;  -12.357;   -7.174;  691.451
401.802;  -15.087;   -5.515;  699.329
402.395;  -14.553;   -9.875;  683.502
402.988;  -15.979;   -8.845;  696.627
403.581;  -13.669;   -8.874;  646.878
404.174;  -11.413;   -5.324;  686.568
404.767;  -13.449;   -9.575;  638.583
405.360;  -16.037;  -10.965;  621.445
405.953;  -11.246;   -8.764;  759.034
406.545;  -10.358;   -7.514;  725.342
407.138;  -14.482;  -10.025;  618.350
407.731;  -13.078;  -10.034;  613.303
408.324;   -9.581;   -9.374;  660.554
408.917;  -10.810;   -6.534;  681.864
409.509;  -11.929;   -8.004;  740.396
410.102;  -13.934;   -9.875;  643.948
410.695;   -9.453;   -8.604;  665.758
411.287;   -9.955;   -6.794;  599.821
411.880;   -9.865;   -9.334;  585.421
412.472;  -13.554;  -10.254;  613.092
413.065;  -11.465;   -6.714;  629.408
413.657;   -9.254;   -7.234;  576.678
414.250;   -7.859;  -10.544;  646.681
414.842;  -10.471;   -9.744;  676.353
415.434;   -8.264;   -6.994;  570.463
416.027;   -4.189;   -5.893;  652.196
416.619;   -5.509;   -7.264;  713.400
417.211;   -6.649;  -10.374;  599.352
417.804;   -4.379;   -7.993;  628.499
418.396;   -7.683;   -7.234;  607.643
418.988;   -4.223;   -9.443;  659.238
419.580;   -7.950;  -10.724;  568.276
420.172;   -6.696;  -10.323;  536.196
420.764;   -1.368;   -8.793;  672.482
421.356;   -2.694;  -11.143;  636.898
421.948;   -3.025;   -8.293;  677.661
422.540;    0.213;   -7.893;  680.027
423.132;    0.816;   -7.082;  600.641
423.724;   -1.888;   -8.653;  561.267
424.316;   -0.959;  -10.213;  621.345
424.908;    1.933;   -9.762;  591.517
425.500;    3.093;   -5.572;  647.978
426.092;    4.560;   -8.422;  648.268
426.683;    2.751;   -9.283;  684.836
427.275;    5.090;   -7.852;  641.471
427.867;    6.876;   -5.272;  668.948
428.458;    7.965;   -7.682;  732.344
429.050;    6.495;  -10.612;  680.749
429.642;    7.653;   -9.882;  743.124
430.233;    8.313;   -6.962;  569.356
430.825;   10.563;   -6.842;  724.809
431.416;    7.349;   -9.672;  698.241
432.008;   10.751;   -6.552;  651.723
432.599;   11.685;   -6.891;  656.073
433.190;    9.228;  -10.912;  637.670
433.782;    8.083;  -11.172;  590.395
434.373;   14.399;   -6.061;  884.765
434.964;   14.103;   -8.251;  602.920
435.556;   12.392;   -9.722;  634.537
436.147;   15.618;   -9.082;  758.490
436.738;   14.285;   -8.041;  701.099
437.329;   20.264;   -7.341;  721.723
437.920;   13.043;   -8.162;  666.688
438.511;   12.936;  -11.802;  564.526
439.103;   18.574;  -10.191;  623.998
439.694;   21.090;   -7.601;  681.583
440.285;   22.222;   -8.541;  764.432
440.876;   19.854;   -9.751;  845.738
441.466;   19.302;   -9.401;  575.162
442.057;   24.097;   -7.760;  665.814
442.648;   23.725;   -9.971;  746.255
443.239;   22.344;  -11.001;  620.477
443.830;   25.926;   -7.990;  704.958
444.421;   27.413;   -7.910;  655.474
445.011;   25.563;   -8.131;  693.619
445.602;   24.705;   -7.111;  743.126
446.193;   26.082;  -10.920;  488.117
446.783;   30.641;   -6.500;  640.397
447.374;   26.714;   -8.671;  692.759
447.964;   27.018;  -10.781;  713.770
448.555;   34.651;   -9.650;  822.742
449.145;   31.450;   -8.660;  662.853
449.736;   32.911;   -8.990;  803.179
450.326;   32.865;   -9.500;  713.626
450.917;   36.377;   -8.680;  675.324
451.507;   37.150;   -7.520;  600.661
452.097;   37.882;   -8.590;  746.267
452.688;   38.058;  -11.340;  742.160
453.278;   38.005;  -10.100;  566.840
453.868;   42.411;   -6.019;  793.550
454.458;   40.855;   -9.440;  651.141
455.048;   41.171;  -10.560;  711.783
455.639;   41.811;  -11.799;  567.096
456.229;   45.590;   -6.899;  710.694
456.819;   48.111;   -7.389;  751.158
457.409;   48.158;  -11.119;  773.993
457.999;   49.706;   -9.289;  737.505
458.589;   51.292;   -6.139;  686.606
459.179;   51.325;   -8.729;  717.658
459.769;   49.032;   -9.789;  627.099
460.358;   52.123;  -10.259;  797.262
460.948;   52.904;   -7.299;  689.503
461.538;   55.391;  -10.289;  660.677
462.128;   53.249;  -11.269;  664.934
462.717;   59.419;   -9.368;  710.326
463.307;   60.923;   -7.908;  705.846
463.897;   58.166;   -9.599;  656.942
464.486;   57.145;   -9.769;  837.128
465.076;   61.738;   -8.048;  733.776
465.666;   64.752;   -9.358;  652.900
466.255;   62.997;   -7.919;  785.651
466.845;   62.314;  -11.689;  666.749
467.434;   65.116;   -7.818;  725.873
468.023;   66.550;   -7.678;  658.357
468.613;   64.533;  -10.939;  713.946
469.202;   68.918;  -10.118;  646.507
469.791;   71.513;   -9.108;  737.811
470.381;   74.223;   -6.058;  742.813
470.970;   73.884;  -10.428;  711.099
471.559;   74.783;  -10.268;  733.291
472.148;   75.882;   -8.448;  675.737
472.738;   78.958;   -6.917;  765.466
473.327;   79.331;  -11.978;  637.529
473.916;   78.257;  -11.888;  737.446
474.505;   82.358;   -9.437;  751.703
475.094;   86.046;   -6.747;  806.570
475.683;   85.212;   -9.367;  797.699
476.272;   86.663;  -12.637;  730.632
476.861;   88.315;  -10.027;  706.754
477.449;   94.819;   -8.716;  728.487
478.038;   90.369;   -9.577;  692.513
478.627;   91.483;   -9.718;  714.852
479.216;   97.525;   -8.947;  769.441
479.805;  100.717;   -6.256;  783.375
480.393;  100.658;   -7.937; 1008.945
480.982;   99.577;   -7.717;  874.501
481.571;  105.391;   -9.266;  858.333
482.159;  105.667;   -7.636;  705.386
482.748;  106.619;   -9.667;  821.385
483.336;  110.922;  -10.376;  858.209
483.925;  110.515;   -7.147;  774.373
484.513;  118.177;   -7.996;  758.962
485.102;  115.022;  -10.027;  810.965
485.690;  123.520;  -10.446; 1011.050
486.278;  124.638;   -8.446;  979.329
486.867;  125.656;   -6.356;  809.662
487.455;  127.907;   -9.136;  898.229
488.043;  129.131;  -10.646;  748.361
488.631;  136.708;   -7.456; 1005.079
489.220;  140.594;   -6.636;  908.626
489.808;  141.565;  -11.036;  741.415
490.396;  149.017;  -10.246;  914.645
490.984;  154.574;   -8.556;  830.161
491.572;  162.683;   -5.886;  940.315
492.160;  169.689;   -9.486;  919.081
492.748;  181.788;  -10.976;  884.341
493.336;  202.978;   -8.776; 1019.693
493.924;  228.684;   -5.465;  958.077
494.512;  256.429;   -9.986; 1066.638
495.100;  291.540;  -10.636; 1103.280
495.687;  344.728;  -10.885; 1206.373
496.275;  405.650;   -8.126; 1150.796
496.863;  477.408;  -10.586; 1281.171
497.451;  578.693;  -11.926; 1386.805
498.038;  704.482;  -10.885; 1556.729
498.626;  811.466;   -6.315; 1741.407
499.214;  964.963;   -7.326; 2016.609
499.801; 1157.235;  -11.906; 2220.633
500.389; 1406.321;  -10.466; 2312.494
500.976; 1706.142;   -5.236; 2744.849
501.564; 2136.767;   -8.936; 3148.565
502.151; 2502.878;  -13.176; 3515.999
502.738; 2953.194;  -10.646; 3971.274
503.326; 3353.393;   -9.525; 4403.796
503.913; 3746.296;  -10.856; 5161.749
504.500; 4110.419;  -11.586; 5986.420
505.088; 4554.359;  -10.336; 6381.201
505.675; 5074.643;   -6.355; 6925.547
506.262; 5793.210;   -9.046; 7619.060
506.849; 6505.771;  -10.416; 8733.969
507.436; 6973.875;  -10.305; 9790.121
508.023; 7521.937;   -5.496; 9985.472
508.610; 7784.416;   -7.856;10434.618
509.197; 8418.495;  -10.097;11198.435
509.784; 9744.028;  -10.886;12391.194
510.371;10741.668;   -9.315;13603.713
510.958;11494.862;   -9.936;14426.586
511.545;12298.570;   -9.326;15243.775
512.132;13081.994;  -10.075;15945.876
512.719;13627.360;   -7.796;16340.369
513.305;14571.697;  -10.606;18011.766
513.892;15397.971;  -11.486;19754.971
514.479;16730.168;   -9.126;20967.805
515.066;18193.006;   -6.026;22299.793
515.652;19472.100;   -8.466;22908.660
516.239;20522.803;  -10.886;23798.875
516.825;21378.254;  -11.496;25567.275
517.412;22404.613;   -5.796;28154.959
517.998;23067.096;  -10.506;28344.111
518.585;23148.816;  -10.076;27134.219
519.171;23683.293;   -8.315;27268.576
519.758;25183.051;   -8.596;28964.129
520.344;27006.396;   -8.466;30664.494
520.930;26940.436;  -11.006;32550.605
521.516;27947.869;  -10.495;35422.895
522.103;30054.875;   -5.526;38280.004
522.689;30584.926;   -8.746;37835.117
523.275;30212.248;  -11.376;37288.613
523.861;31489.023;  -11.156;37281.395
524.447;32745.992;   -8.135;37846.949
525.033;32455.336;   -7.896;38321.949
525.619;32511.283;  -12.476;38579.285
526.205;33775.758;   -9.516;40622.875
526.791;35637.164;   -6.926;42258.836
527.377;35235.051;   -8.346;42966.902
527.963;35291.332;   -8.717;42018.949
528.549;32002.803;  -11.016;42476.828
529.135;29599.594;   -8.536;41854.852
529.721;30567.426;   -9.666;41237.711
530.306;32554.977;  -10.066;41259.445
530.892;34052.902;  -11.356;41506.047
531.478;36023.102;   -6.596;43559.613
532.063;38970.789;   -8.836;47695.563
532.649;39430.723;  -10.047;50808.324
533.235;39942.375;   -9.746;51787.500
533.820;40281.879;   -6.566;52145.035
534.406;41394.672;  -10.817;51133.488
534.991;40864.977;   -9.416;49996.805
535.576;39097.980;   -9.036;48882.852
536.162;39004.734;   -6.156;46942.285
536.747;38476.285;  -11.607;45711.746
537.333;39006.977;  -11.787;48510.180
537.918;38957.930;  -12.437;50439.891
538.503;37367.809;   -7.196;50863.711
539.088;36477.715;  -10.556;50906.922
539.673;39751.945;   -8.767;52621.965
540.259;43112.363;  -10.026;52368.094
540.844;42461.086;   -7.416;50879.109
541.429;44205.461;   -9.467;52077.777
542.014;47113.828;   -9.527;52716.695
542.599;46438.273;   -9.946;52363.281
543.184;43929.496;   -7.927;53187.137
543.769;45221.113;   -9.297;54697.605
544.354;44876.266;  -10.127;53913.914
544.938;43645.313;   -9.267;49680.164
545.523;45518.035;   -6.506;47386.277
546.108;48445.621;   -9.787;49151.949
546.693;50260.426;  -11.587;51384.637
547.278;49989.820;  -10.986;51853.254
547.862;47087.230;   -8.206;51173.750
548.447;42614.207;  -10.067;51691.395
549.031;42138.152;   -9.637;52456.703
549.616;47020.023;   -9.926;52714.516
550.201;46439.941;   -6.347;52414.598
550.785;47362.652;   -7.917;52355.059
551.370;46399.848;  -10.867;54589.453
551.954;45904.199;   -9.047;58267.348
552.538;46787.086;   -7.827;59062.176
553.123;45258.738;  -10.287;58115.285
553.707;43022.086;  -12.178;56556.285
554.291;44769.520;   -8.717;56201.668
554.876;47503.238;   -7.457;55335.762
555.460;47506.887;  -10.387;54155.703
556.044;48253.445;   -9.618;53721.484
556.628;46907.891;  -11.567;53731.016
557.212;45760.383;   -8.097;54312.531
557.796;44099.570;  -11.077;53797.773
558.380;44212.805;  -11.108;56145.984
558.964;44854.414;   -9.057;57277.930
559.548;46192.031;   -6.977;56459.641
560.132;44314.980;  -11.457;54434.543
560.716;42891.266;  -11.378;54800.617
561.300;43901.090;   -9.577;57606.945
561.884;45188.285;   -7.127;58972.445
562.467;43533.430;   -7.118;57327.570
563.051;42836.176;  -13.358;54962.434
563.635;43761.457;  -10.178;52594.473
564.219;44119.863;   -7.837;50610.410
564.802;45240.902;  -11.398;49551.180
565.386;44990.938;  -12.788;48370.953
565.969;44077.363;   -9.077;48178.871
566.553;43288.098;   -6.207;49957.305
567.136;44130.320;   -8.568;50369.594
567.720;40585.961;  -11.868;49492.004
568.303;38673.746;   -8.268;50616.352
568.887;38640.082;   -8.698;50727.148
569.470;38811.914;   -6.808;51698.379
570.053;37393.742;  -13.188;52122.078
570.637;35976.801;  -12.037;52536.438
571.220;36028.234;   -8.577;51186.098
571.803;36523.516;   -8.498;51032.762
572.386;38460.074;  -10.498;49609.887
572.969;40977.758;   -9.388;48285.926
573.552;39448.758;   -8.338;47624.285
574.135;38046.316;   -8.518;45498.641
574.718;35535.305;  -13.628;41970.434
575.301;34659.777;  -10.893;41447.137
575.884;33784.254;   -8.158;40923.836
576.467;34903.164;  -10.328;45267.723
577.050;36642.141;  -13.058;48175.543
577.633;38015.785;   -9.458;47729.328
578.216;37183.938;   -8.928;47579.793
578.799;36211.094;   -9.358;47820.996
579.381;35019.438;  -11.388;48115.551
579.964;33024.254;  -11.718;47333.766
580.547;34718.285;   -8.588;46668.969
581.129;35959.945;   -8.859;44466.141
581.712;36983.699;  -10.729;44164.922
582.294;37555.441;  -11.118;46477.855
582.877;37239.668;   -5.218;48244.254
583.459;34995.461;   -8.679;47437.895
584.042;32964.270;  -10.709;46943.219
584.624;33313.543;  -11.669;46792.227
585.206;33042.793;   -8.218;46557.250
585.789;33036.363;  -10.569;45793.773
586.371;35825.746;  -11.859;43836.391
586.953;36667.293;  -10.719;42972.492
587.536;38166.547;   -7.198;42487.211
588.118;38372.191;   -8.720;42086.414
588.700;34257.930;  -10.439;43389.930
589.282;33153.906;   -9.198;43646.039
589.864;34105.410;   -9.199;43438.109
590.446;35273.773;  -11.319;43151.926
591.028;35223.617;  -11.159;42781.867
591.610;34165.742;  -11.779;42839.098
592.192;31559.799;   -7.668;42820.402
592.774;30005.553;  -11.949;40724.277
593.356;28712.375;  -12.129;39874.789
593.937;27655.963;  -10.669;39980.648
594.519;29781.646;   -6.509;42069.633
595.101;31990.566;  -10.849;42976.031
