
Integration time [ms]:   3.276
Averaging Nr. [scans]: 1000
Smoothing Nr. [pixels]: 0
Data measured with spectrometer [name]: 7414430SP
Wave   ;Sample   ;Dark     ;Reference
[nm]   ;[counts] ;[counts] ;[counts] 

288.544;  149.603;    7.793;  793.890
289.143;  153.740;    7.462;  681.602
289.742;  154.555;    8.602;  828.814
290.341;  139.654;    1.321;  789.841
290.940;  128.891;   -0.709;  730.702
291.538;  129.076;    0.881;  881.108
292.137;  130.213;    0.122;  792.581
292.736;  134.783;   -1.929;  975.101
293.335;  131.676;   -8.229;  735.086
293.934;  131.867;   -5.279;  781.677
294.532;  130.602;   -1.369; 1031.958
295.131;  115.986;   -7.641;  834.394
295.730;  116.489;   -8.420;  809.588
296.328;  115.143;   -5.611;  783.442
296.927;  115.615;   -5.781;  779.652
297.525;  117.576;   -6.361;  781.236
298.124;  107.265;  -11.382;  654.009
298.722;  110.599;   -7.641;  761.933
299.321;  109.228;   -6.811;  708.597
299.919;  107.410;   -6.991;  751.918
300.518;  103.997;  -10.362;  689.338
301.116;  105.331;   -9.581;  691.381
301.715;  105.367;   -4.891;  730.222
302.313;  104.783;   -8.801;  704.943
302.911;   99.714;   -8.522;  733.830
303.509;  105.462;   -6.171;  925.627
304.108;  102.691;   -7.311;  760.383
304.706;  101.813;   -8.321;  801.664
305.304;   96.659;  -10.222;  796.707
305.902;  101.747;   -6.021;  784.484
306.500;   98.005;   -4.971;  728.200
307.098;   95.955;   -7.061;  746.560
307.696;   94.521;   -8.801;  780.432
308.294;   95.023;   -6.411;  731.359
308.892;   96.906;   -2.901;  759.769
309.490;   92.296;   -5.041;  712.161
310.088;   91.043;   -5.002;  788.444
310.686;   95.480;   -2.041;  821.749
311.284;   91.374;   -2.351;  766.040
311.882;   89.029;   -4.422;  731.225
312.480;   85.606;   -4.192;  697.167
313.078;   87.084;   -1.172;  808.331
313.675;   88.204;   -2.601;  691.600
314.273;   83.108;   -1.312;  797.837
314.871;   82.874;   -3.942;  589.829
315.468;   80.989;   -2.802;  652.090
316.066;   83.971;   -0.701;  694.427
316.664;   76.449;   -4.362;  656.351
317.261;   80.507;   -2.872;  910.128
317.859;   75.454;   -2.022;  768.735
318.456;   76.206;   -0.531;  830.096
319.054;   72.432;   -3.912;  787.828
319.651;   71.710;   -4.752;  759.928
320.249;   69.912;   -2.602;  810.188
320.846;   67.442;   -0.821;  714.286
321.443;   65.284;   -4.642;  832.135
322.041;   61.668;   -5.002;  812.315
322.638;   59.958;   -3.982;  701.456
323.235;   60.988;   -3.411;  665.683
323.833;   58.670;   -7.361;  740.354
324.430;   53.447;   -8.611;  615.900
325.027;   54.915;   -4.061;  876.855
325.624;   54.565;   -4.031;  644.532
326.221;   51.381;   -7.481;  689.717
326.818;   51.934;   -5.281;  818.332
327.415;   54.584;   -7.460;  748.828
328.012;   53.571;   -5.510;  690.585
328.609;   51.839;   -7.880;  731.389
329.206;   49.952;   -8.331;  778.621
329.803;   50.619;   -5.121;  737.841
330.400;   52.779;   -4.510;  704.260
330.997;   54.577;   -6.441;  817.147
331.594;   53.098;   -8.831;  788.185
332.191;   58.201;   -7.621;  728.722
332.787;   61.490;   -4.591;  844.463
333.384;   59.936;   -7.412;  763.093
333.981;   58.463;   -8.293;  815.687
334.578;   61.395;   -7.052;  708.378
335.174;   63.660;   -3.102;  731.469
335.771;   64.182;   -5.943;  836.456
336.367;   60.515;   -7.393;  710.631
336.964;   65.356;   -4.063;  793.266
337.561;   62.595;   -3.813;  731.112
338.157;   57.815;   -4.654;  911.916
338.754;   55.225;   -7.934;  796.589
339.350;   54.383;   -4.414;  722.493
339.946;   56.740;   -4.664;  773.135
340.543;   48.020;   -6.375;  846.136
341.139;   43.050;   -9.815;  720.836
341.735;   39.784;   -4.526;  772.593
342.332;   38.736;   -4.895;  691.472
342.928;   39.787;   -4.295;  795.394
343.524;   33.371;   -5.476;  761.684
344.120;   30.116;   -5.856;  738.562
344.716;   32.841;   -2.155;  723.717
345.313;   30.372;   -6.275;  795.342
345.909;   25.556;   -8.815;  627.336
346.505;   27.787;   -5.305;  740.247
347.101;   27.419;   -2.674;  827.864
347.697;   27.836;   -4.344;  785.398
348.293;   22.556;   -9.975;  627.244
348.889;   23.474;   -5.774;  745.914
349.485;   22.712;   -5.004;  688.205
350.081;   23.849;   -4.704;  772.592
350.676;   18.366;   -6.635;  691.606
351.272;   22.862;   -4.504;  809.530
351.868;   22.480;   -3.914;  780.497
352.464;   20.050;   -9.044;  723.932
353.059;   16.172;   -8.314;  646.017
353.655;   19.031;   -7.024;  777.063
354.251;   20.859;   -5.343;  759.845
354.846;   15.056;   -8.604;  740.646
355.442;   12.574;   -6.945;  753.071
356.038;   14.735;   -7.564;  751.708
356.633;   14.859;   -5.814;  728.594
357.229;   13.009;   -7.364;  724.757
357.824;   11.206;   -8.024;  703.600
358.420;    9.835;   -9.384;  679.726
359.015;   10.788;   -5.104;  695.357
359.610;   11.501;   -6.854;  763.920
360.206;    5.811;  -10.185;  603.240
360.801;    8.551;   -7.054;  646.503
361.396;   10.490;   -5.034;  725.975
361.992;    5.661;   -8.284;  668.220
362.587;    3.056;   -8.625;  670.160
363.182;    5.455;   -7.674;  689.631
363.777;    6.401;   -5.164;  738.242
364.372;    5.732;   -8.604;  737.314
364.967;    1.790;   -9.055;  680.744
365.563;    6.154;   -6.114;  815.567
366.158;    3.764;   -5.814;  685.161
366.753;    3.250;   -7.854;  649.263
367.348;    1.559;   -7.804;  746.056
367.942;    1.762;   -7.954;  697.298
368.537;    1.013;   -4.984;  754.245
369.132;    1.092;   -8.564;  703.428
369.727;   -3.025;   -8.855;  638.079
370.322;   -1.607;   -6.245;  580.186
370.917;   -1.851;   -6.425;  710.646
371.511;    0.622;   -6.294;  861.834
372.106;   -2.443;   -7.685;  776.964
372.701;   -5.678;   -7.335;  585.988
373.296;   -0.006;   -4.564;  863.135
373.890;   -5.109;  -10.235;  647.840
374.485;   -6.601;   -7.885;  691.199
375.079;   -2.810;   -7.324;  738.685
375.674;   -1.628;   -3.494;  812.970
376.268;   -5.460;   -8.525;  691.759
376.863;  -11.615;  -10.086;  580.327
377.457;   -6.417;   -7.025;  662.490
378.052;   -7.327;   -3.585;  764.884
378.646;   -8.338;   -7.595;  741.167
379.240;   -8.950;   -8.335;  721.176
379.835;   -7.657;   -5.785;  636.978
380.429;   -9.864;   -4.335;  562.557
381.023;  -10.427;   -6.805;  779.205
381.617;  -12.223;   -9.195;  680.106
382.212;   -8.516;   -6.905;  685.303
382.806;   -8.403;   -3.745;  760.690
383.400;  -12.240;   -7.745;  672.281
383.994;  -12.972;   -9.765;  664.870
384.588;   -8.930;   -6.564;  697.701
385.182;   -8.202;   -5.344;  726.624
385.776;   -9.433;   -8.514;  706.875
386.370;  -12.903;   -9.555;  681.968
386.964;  -11.046;   -8.715;  684.155
387.558;   -9.963;   -6.174;  598.360
388.152;  -13.046;   -8.725;  681.959
388.745;  -11.777;   -7.965;  814.707
389.339;   -9.622;   -5.924;  747.642
389.933;   -8.713;   -5.524;  695.370
390.527;   -9.808;   -7.114;  859.029
391.120;  -16.162;  -10.725;  595.318
391.714;  -13.466;   -8.035;  711.633
392.308;   -9.478;   -3.574;  780.253
392.901;  -13.966;   -7.245;  642.460
393.495;  -15.249;   -9.285;  595.414
394.089;  -13.040;   -5.895;  760.452
394.682;  -13.949;   -4.295;  697.188
395.275;  -14.851;   -9.875;  719.927
395.869;  -16.404;   -8.485;  667.314
396.462;  -14.799;   -7.455;  616.609
397.056;   -9.892;   -5.424;  776.621
397.649;  -14.753;   -6.605;  731.575
398.242;  -12.304;   -8.224;  712.645
398.836;  -11.561;   -7.474;  766.408
399.429;  -12.969;   -7.094;  631.041
400.022;  -16.240;   -9.475;  665.902
400.615;  -14.357;   -7.145;  805.609
401.208;  -12.136;   -7.174;  691.451
401.802;  -14.434;   -5.515;  699.329
402.395;  -15.448;   -9.875;  683.502
402.988;  -15.686;   -8.845;  696.627
403.581;  -13.478;   -8.874;  646.878
404.174;  -10.382;   -5.324;  686.568
404.767;  -13.613;   -9.575;  638.583
405.360;  -16.867;  -10.965;  621.445
405.953;  -10.636;   -8.764;  759.034
406.545;   -9.935;   -7.514;  725.342
407.138;  -15.066;  -10.025;  618.350
407.731;  -13.497;  -10.034;  613.303
408.324;   -9.322;   -9.374;  660.554
408.917;  -10.789;   -6.534;  681.864
409.509;  -12.108;   -8.004;  740.396
410.102;  -14.257;   -9.875;  643.948
410.695;   -7.559;   -8.604;  665.758
411.287;   -8.854;   -6.794;  599.821
411.880;  -10.043;   -9.334;  585.421
412.472;  -13.503;  -10.254;  613.092
413.065;  -10.541;   -6.714;  629.408
413.657;   -8.672;   -7.234;  576.678
414.250;   -8.304;  -10.544;  646.681
414.842;  -10.159;   -9.744;  676.353
415.434;   -7.361;   -6.994;  570.463
416.027;   -3.233;   -5.893;  652.196
416.619;   -5.510;   -7.264;  713.400
417.211;   -5.993;  -10.374;  599.352
417.804;   -3.062;   -7.993;  628.499
418.396;   -6.736;   -7.234;  607.643
418.988;   -4.497;   -9.443;  659.238
419.580;   -7.635;  -10.724;  568.276
420.172;   -5.576;  -10.323;  536.196
420.764;   -1.384;   -8.793;  672.482
421.356;   -3.818;  -11.143;  636.898
421.948;   -4.029;   -8.293;  677.661
422.540;    1.839;   -7.893;  680.027
423.132;    0.471;   -7.082;  600.641
423.724;   -1.882;   -8.653;  561.267
424.316;   -0.290;  -10.213;  621.345
424.908;    2.952;   -9.762;  591.517
425.500;    3.380;   -5.572;  647.978
426.092;    3.920;   -8.422;  648.268
426.683;    2.465;   -9.283;  684.836
427.275;    6.037;   -7.852;  641.471
427.867;    7.521;   -5.272;  668.948
428.458;    8.337;   -7.682;  732.344
429.050;    6.429;  -10.612;  680.749
429.642;    8.352;   -9.882;  743.124
430.233;    8.963;   -6.962;  569.356
430.825;   10.151;   -6.842;  724.809
431.416;    7.868;   -9.672;  698.241
432.008;   11.838;   -6.552;  651.723
432.599;   11.854;   -6.891;  656.073
433.190;    8.717;  -10.912;  637.670
433.782;    7.850;  -11.172;  590.395
434.373;   15.263;   -6.061;  884.765
434.964;   13.934;   -8.251;  602.920
435.556;   11.604;   -9.722;  634.537
436.147;   14.833;   -9.082;  758.490
436.738;   14.998;   -8.041;  701.099
437.329;   19.801;   -7.341;  721.723
437.920;   12.412;   -8.162;  666.688
438.511;   13.045;  -11.802;  564.526
439.103;   19.780;  -10.191;  623.998
439.694;   21.611;   -7.601;  681.583
440.285;   21.428;   -8.541;  764.432
440.876;   20.022;   -9.751;  845.738
441.466;   20.299;   -9.401;  575.162
442.057;   24.953;   -7.760;  665.814
442.648;   22.596;   -9.971;  746.255
443.239;   21.533;  -11.001;  620.477
443.830;   26.844;   -7.990;  704.958
444.421;   29.310;   -7.910;  655.474
445.011;   25.071;   -8.131;  693.619
445.602;   25.016;   -7.111;  743.126
446.193;   26.968;  -10.920;  488.117
446.783;   31.384;   -6.500;  640.397
447.374;   26.937;   -8.671;  692.759
447.964;   27.329;  -10.781;  713.770
448.555;   35.488;   -9.650;  822.742
449.145;   32.433;   -8.660;  662.853
449.736;   32.882;   -8.990;  803.179
450.326;   32.863;   -9.500;  713.626
450.917;   38.278;   -8.680;  675.324
451.507;   37.167;   -7.520;  600.661
452.097;   37.529;   -8.590;  746.267
452.688;   38.744;  -11.340;  742.160
453.278;   38.361;  -10.100;  566.840
453.868;   42.933;   -6.019;  793.550
454.458;   40.436;   -9.440;  651.141
455.048;   41.367;  -10.560;  711.783
455.639;   42.852;  -11.799;  567.096
456.229;   46.230;   -6.899;  710.694
456.819;   47.985;   -7.389;  751.158
457.409;   48.596;  -11.119;  773.993
457.999;   51.374;   -9.289;  737.505
458.589;   51.427;   -6.139;  686.606
459.179;   50.181;   -8.729;  717.658
459.769;   48.629;   -9.789;  627.099
460.358;   53.764;  -10.259;  797.262
460.948;   53.640;   -7.299;  689.503
461.538;   54.749;  -10.289;  660.677
462.128;   52.445;  -11.269;  664.934
462.717;   59.971;   -9.368;  710.326
463.307;   63.149;   -7.908;  705.846
463.897;   58.932;   -9.599;  656.942
464.486;   58.062;   -9.769;  837.128
465.076;   63.122;   -8.048;  733.776
465.666;   65.341;   -9.358;  652.900
466.255;   63.270;   -7.919;  785.651
466.845;   62.708;  -11.689;  666.749
467.434;   65.922;   -7.818;  725.873
468.023;   66.885;   -7.678;  658.357
468.613;   64.155;  -10.939;  713.946
469.202;   68.638;  -10.118;  646.507
469.791;   73.116;   -9.108;  737.811
470.381;   75.085;   -6.058;  742.813
470.970;   74.356;  -10.428;  711.099
471.559;   73.792;  -10.268;  733.291
472.148;   78.058;   -8.448;  675.737
472.738;   79.757;   -6.917;  765.466
473.327;   79.469;  -11.978;  637.529
473.916;   78.948;  -11.888;  737.446
474.505;   83.421;   -9.437;  751.703
475.094;   86.346;   -6.747;  806.570
475.683;   86.203;   -9.367;  797.699
476.272;   86.843;  -12.637;  730.632
476.861;   88.784;  -10.027;  706.754
477.449;   96.609;   -8.716;  728.487
478.038;   90.572;   -9.577;  692.513
478.627;   92.324;   -9.718;  714.852
479.216;   98.750;   -8.947;  769.441
479.805;  101.326;   -6.256;  783.375
480.393;  100.975;   -7.937; 1008.945
480.982;  100.129;   -7.717;  874.501
481.571;  105.911;   -9.266;  858.333
482.159;  107.317;   -7.636;  705.386
482.748;  106.138;   -9.667;  821.385
483.336;  111.187;  -10.376;  858.209
483.925;  112.719;   -7.147;  774.373
484.513;  118.551;   -7.996;  758.962
485.102;  116.140;  -10.027;  810.965
485.690;  123.610;  -10.446; 1011.050
486.278;  126.481;   -8.446;  979.329
486.867;  126.697;   -6.356;  809.662
487.455;  128.745;   -9.136;  898.229
488.043;  129.806;  -10.646;  748.361
488.631;  139.402;   -7.456; 1005.079
489.220;  142.865;   -6.636;  908.626
489.808;  143.820;  -11.036;  741.415
490.396;  150.701;  -10.246;  914.645
490.984;  157.011;   -8.556;  830.161
491.572;  165.447;   -5.886;  940.315
492.160;  172.879;   -9.486;  919.081
492.748;  185.489;  -10.976;  884.341
493.336;  208.685;   -8.776; 1019.693
493.924;  236.202;   -5.465;  958.077
494.512;  263.318;   -9.986; 1066.638
495.100;  302.524;  -10.636; 1103.280
495.687;  357.780;  -10.885; 1206.373
496.275;  420.706;   -8.126; 1150.796
496.863;  489.719;  -10.586; 1281.171
497.451;  592.065;  -11.926; 1386.805
498.038;  741.120;  -10.885; 1556.729
498.626;  856.880;   -6.315; 1741.407
499.214;  995.712;   -7.326; 2016.609
499.801; 1201.310;  -11.906; 2220.633
500.389; 1480.724;  -10.466; 2312.494
500.976; 1832.829;   -5.236; 2744.849
501.564; 2240.650;   -8.936; 3148.565
502.151; 2623.793;  -13.176; 3515.999
502.738; 3105.967;  -10.646; 3971.274
503.326; 3498.831;   -9.525; 4403.796
503.913; 3916.886;  -10.856; 5161.749
504.500; 4246.839;  -11.586; 5986.420
505.088; 4666.901;  -10.336; 6381.201
505.675; 5229.172;   -6.355; 6925.547
506.262; 5848.623;   -9.046; 7619.060
506.849; 6610.679;  -10.416; 8733.969
507.436; 7121.248;  -10.305; 9790.121
508.023; 7573.496;   -5.496; 9985.472
508.610; 7896.176;   -7.856;10434.618
509.197; 8724.986;  -10.097;11198.435
509.784;10392.691;  -10.886;12391.194
510.371;11539.411;   -9.315;13603.713
510.958;12256.429;   -9.936;14426.586
511.545;12879.371;   -9.326;15243.775
512.132;13374.737;  -10.075;15945.876
512.719;14003.490;   -7.796;16340.369
513.305;15308.607;  -10.606;18011.766
513.892;16212.391;  -11.486;19754.971
514.479;17868.529;   -9.126;20967.805
515.066;19316.018;   -6.026;22299.793
515.652;20394.113;   -8.466;22908.660
516.239;21616.555;  -10.886;23798.875
516.825;21814.939;  -11.496;25567.275
517.412;22601.512;   -5.796;28154.959
517.998;23689.832;  -10.506;28344.111
518.585;23773.729;  -10.076;27134.219
519.171;23680.693;   -8.315;27268.576
519.758;25122.348;   -8.596;28964.129
520.344;26587.480;   -8.466;30664.494
520.930;26686.004;  -11.006;32550.605
521.516;28836.549;  -10.495;35422.895
522.103;31490.344;   -5.526;38280.004
522.689;31863.129;   -8.746;37835.117
523.275;30622.453;  -11.376;37288.613
523.861;31130.178;  -11.156;37281.395
524.447;32905.410;   -8.135;37846.949
525.033;33154.465;   -7.896;38321.949
525.619;33499.832;  -12.476;38579.285
526.205;34924.254;   -9.516;40622.875
526.791;36930.590;   -6.926;42258.836
527.377;37084.496;   -8.346;42966.902
527.963;39113.391;   -8.717;42018.949
528.549;38409.965;  -11.016;42476.828
529.135;36299.141;   -8.536;41854.852
529.721;35688.148;   -9.666;41237.711
530.306;35223.375;  -10.066;41259.445
530.892;35693.191;  -11.356;41506.047
531.478;36853.559;   -6.596;43559.613
532.063;38980.719;   -8.836;47695.563
532.649;39258.789;  -10.047;50808.324
533.235;41273.082;   -9.746;51787.500
533.820;42409.211;   -6.566;52145.035
534.406;42237.691;  -10.817;51133.488
534.991;41492.156;   -9.416;49996.805
535.576;40690.508;   -9.036;48882.852
536.162;40968.992;   -6.156;46942.285
536.747;41768.676;  -11.607;45711.746
537.333;45338.133;  -11.787;48510.180
537.918;47872.316;  -12.437;50439.891
538.503;46558.906;   -7.196;50863.711
539.088;43754.914;  -10.556;50906.922
539.673;44789.398;   -8.767;52621.965
540.259;44836.809;  -10.026;52368.094
540.844;41685.352;   -7.416;50879.109
541.429;42171.176;   -9.467;52077.777
542.014;45738.809;   -9.527;52716.695
542.599;46061.891;   -9.946;52363.281
543.184;42717.109;   -7.927;53187.137
543.769;43318.391;   -9.297;54697.605
544.354;43431.016;  -10.127;53913.914
544.938;42971.594;   -9.267;49680.164
545.523;45313.906;   -6.506;47386.277
546.108;47381.453;   -9.787;49151.949
546.693;49326.867;  -11.587;51384.637
547.278;48727.852;  -10.986;51853.254
547.862;45392.160;   -8.206;51173.750
548.447;41466.586;  -10.067;51691.395
549.031;40928.469;   -9.637;52456.703
549.616;45301.188;   -9.926;52714.516
550.201;45041.246;   -6.347;52414.598
550.785;44779.332;   -7.917;52355.059
551.370;44207.398;  -10.867;54589.453
551.954;44468.387;   -9.047;58267.348
552.538;46047.023;   -7.827;59062.176
553.123;45377.781;  -10.287;58115.285
553.707;43055.277;  -12.178;56556.285
554.291;42933.129;   -8.717;56201.668
554.876;43125.863;   -7.457;55335.762
555.460;44144.375;  -10.387;54155.703
556.044;46551.711;   -9.618;53721.484
556.628;45058.785;  -11.567;53731.016
557.212;44712.797;   -8.097;54312.531
557.796;43154.363;  -11.077;53797.773
558.380;43333.285;  -11.108;56145.984
558.964;42923.477;   -9.057;57277.930
559.548;43272.250;   -6.977;56459.641
560.132;42272.996;  -11.457;54434.543
560.716;41020.348;  -11.378;54800.617
561.300;40867.707;   -9.577;57606.945
561.884;42134.387;   -7.127;58972.445
562.467;41609.844;   -7.118;57327.570
563.051;41066.398;  -13.358;54962.434
563.635;41522.441;  -10.178;52594.473
564.219;42475.711;   -7.837;50610.410
564.802;43322.746;  -11.398;49551.180
565.386;43450.922;  -12.788;48370.953
565.969;42858.938;   -9.077;48178.871
566.553;42573.688;   -6.207;49957.305
567.136;42823.844;   -8.568;50369.594
567.720;39207.379;  -11.868;49492.004
568.303;37323.941;   -8.268;50616.352
568.887;37475.227;   -8.698;50727.148
569.470;38170.469;   -6.808;51698.379
570.053;36801.426;  -13.188;52122.078
570.637;35731.574;  -12.037;52536.438
571.220;35279.559;   -8.577;51186.098
571.803;35542.070;   -8.498;51032.762
572.386;37498.922;  -10.498;49609.887
572.969;40275.027;   -9.388;48285.926
573.552;39212.855;   -8.338;47624.285
574.135;38316.371;   -8.518;45498.641
574.718;34480.898;  -13.628;41970.434
575.301;32507.201;  -10.893;41447.137
575.884;30533.504;   -8.158;40923.836
576.467;31541.826;  -10.328;45267.723
577.050;35387.992;  -13.058;48175.543
577.633;37953.734;   -9.458;47729.328
578.216;37472.742;   -8.928;47579.793
578.799;36877.375;   -9.358;47820.996
579.381;34977.352;  -11.388;48115.551
579.964;33136.293;  -11.718;47333.766
580.547;33989.785;   -8.588;46668.969
581.129;34502.813;   -8.859;44466.141
581.712;34790.188;  -10.729;44164.922
582.294;35778.051;  -11.118;46477.855
582.877;36712.891;   -5.218;48244.254
583.459;35274.906;   -8.679;47437.895
584.042;33662.445;  -10.709;46943.219
584.624;33806.758;  -11.669;46792.227
585.206;32269.086;   -8.218;46557.250
585.789;32780.789;  -10.569;45793.773
586.371;35912.355;  -11.859;43836.391
586.953;35753.227;  -10.719;42972.492
587.536;36134.246;   -7.198;42487.211
588.118;36586.520;   -8.720;42086.414
588.700;33778.691;  -10.439;43389.930
589.282;32386.451;   -9.198;43646.039
589.864;32263.918;   -9.199;43438.109
590.446;33070.359;  -11.319;43151.926
591.028;31481.453;  -11.159;42781.867
591.610;28903.006;  -11.779;42839.098
592.192;25951.295;   -7.668;42820.402
592.774;26408.275;  -11.949;40724.277
593.356;27380.912;  -12.129;39874.789
593.937;28043.602;  -10.669;39980.648
594.519;30553.264;   -6.509;42069.633
595.101;32613.541;  -10.849;42976.031
