
Integration time [ms]:   3.276
Averaging Nr. [scans]: 1000
Smoothing Nr. [pixels]: 0
Data measured with spectrometer [name]: 7414430SP
Wave   ;Sample   ;Dark     ;Reference
[nm]   ;[counts] ;[counts] ;[counts] 

288.544;  152.119;    7.793;  793.890
289.143;  155.093;    7.462;  681.602
289.742;  155.386;    8.602;  828.814
290.341;  141.537;    1.321;  789.841
290.940;  129.531;   -0.709;  730.702
291.538;  131.216;    0.881;  881.108
292.137;  131.489;    0.122;  792.581
292.736;  136.908;   -1.929;  975.101
293.335;  132.946;   -8.229;  735.086
293.934;  132.472;   -5.279;  781.677
294.532;  130.589;   -1.369; 1031.958
295.131;  117.533;   -7.641;  834.394
295.730;  117.800;   -8.420;  809.588
296.328;  115.821;   -5.611;  783.442
296.927;  117.481;   -5.781;  779.652
297.525;  118.275;   -6.361;  781.236
298.124;  108.725;  -11.382;  654.009
298.722;  111.793;   -7.641;  761.933
299.321;  110.453;   -6.811;  708.597
299.919;  108.411;   -6.991;  751.918
300.518;  105.286;  -10.362;  689.338
301.116;  106.563;   -9.581;  691.381
301.715;  106.593;   -4.891;  730.222
302.313;  105.986;   -8.801;  704.943
302.911;  101.097;   -8.522;  733.830
303.509;  105.513;   -6.171;  925.627
304.108;  103.592;   -7.311;  760.383
304.706;  102.828;   -8.321;  801.664
305.304;   97.573;  -10.222;  796.707
305.902;  102.798;   -6.021;  784.484
306.500;   98.757;   -4.971;  728.200
307.098;   97.202;   -7.061;  746.560
307.696;   95.284;   -8.801;  780.432
308.294;   95.369;   -6.411;  731.359
308.892;   97.035;   -2.901;  759.769
309.490;   94.332;   -5.041;  712.161
310.088;   91.906;   -5.002;  788.444
310.686;   96.814;   -2.041;  821.749
311.284;   91.654;   -2.351;  766.040
311.882;   89.775;   -4.422;  731.225
312.480;   87.000;   -4.192;  697.167
313.078;   88.087;   -1.172;  808.331
313.675;   89.454;   -2.601;  691.600
314.273;   84.228;   -1.312;  797.837
314.871;   84.004;   -3.942;  589.829
315.468;   81.375;   -2.802;  652.090
316.066;   84.583;   -0.701;  694.427
316.664;   77.026;   -4.362;  656.351
317.261;   81.135;   -2.872;  910.128
317.859;   76.402;   -2.022;  768.735
318.456;   76.699;   -0.531;  830.096
319.054;   73.700;   -3.912;  787.828
319.651;   71.959;   -4.752;  759.928
320.249;   71.166;   -2.602;  810.188
320.846;   68.567;   -0.821;  714.286
321.443;   65.976;   -4.642;  832.135
322.041;   63.086;   -5.002;  812.315
322.638;   60.388;   -3.982;  701.456
323.235;   62.413;   -3.411;  665.683
323.833;   60.408;   -7.361;  740.354
324.430;   54.366;   -8.611;  615.900
325.027;   55.406;   -4.061;  876.855
325.624;   55.027;   -4.031;  644.532
326.221;   52.841;   -7.481;  689.717
326.818;   52.907;   -5.281;  818.332
327.415;   55.595;   -7.460;  748.828
328.012;   54.861;   -5.510;  690.585
328.609;   53.655;   -7.880;  731.389
329.206;   52.647;   -8.331;  778.621
329.803;   51.517;   -5.121;  737.841
330.400;   54.398;   -4.510;  704.260
330.997;   55.531;   -6.441;  817.147
331.594;   55.132;   -8.831;  788.185
332.191;   59.241;   -7.621;  728.722
332.787;   62.614;   -4.591;  844.463
333.384;   61.771;   -7.412;  763.093
333.981;   60.294;   -8.293;  815.687
334.578;   63.040;   -7.052;  708.378
335.174;   65.943;   -3.102;  731.469
335.771;   65.377;   -5.943;  836.456
336.367;   61.759;   -7.393;  710.631
336.964;   65.621;   -4.063;  793.266
337.561;   63.716;   -3.813;  731.112
338.157;   59.667;   -4.654;  911.916
338.754;   57.001;   -7.934;  796.589
339.350;   54.953;   -4.414;  722.493
339.946;   56.910;   -4.664;  773.135
340.543;   49.243;   -6.375;  846.136
341.139;   44.271;   -9.815;  720.836
341.735;   41.297;   -4.526;  772.593
342.332;   40.190;   -4.895;  691.472
342.928;   41.139;   -4.295;  795.394
343.524;   35.164;   -5.476;  761.684
344.120;   31.656;   -5.856;  738.562
344.716;   33.741;   -2.155;  723.717
345.313;   32.987;   -6.275;  795.342
345.909;   26.862;   -8.815;  627.336
346.505;   28.558;   -5.305;  740.247
347.101;   29.204;   -2.674;  827.864
347.697;   29.695;   -4.344;  785.398
348.293;   24.164;   -9.975;  627.244
348.889;   24.933;   -5.774;  745.914
349.485;   24.161;   -5.004;  688.205
350.081;   25.007;   -4.704;  772.592
350.676;   19.934;   -6.635;  691.606
351.272;   24.252;   -4.504;  809.530
351.868;   23.883;   -3.914;  780.497
352.464;   21.616;   -9.044;  723.932
353.059;   18.341;   -8.314;  646.017
353.655;   20.494;   -7.024;  777.063
354.251;   22.627;   -5.343;  759.845
354.846;   17.247;   -8.604;  740.646
355.442;   15.536;   -6.945;  753.071
356.038;   16.759;   -7.564;  751.708
356.633;   16.470;   -5.814;  728.594
357.229;   15.307;   -7.364;  724.757
357.824;   12.931;   -8.024;  703.600
358.420;   11.744;   -9.384;  679.726
359.015;   12.286;   -5.104;  695.357
359.610;   13.576;   -6.854;  763.920
360.206;    7.935;  -10.185;  603.240
360.801;    9.990;   -7.054;  646.503
361.396;   12.532;   -5.034;  725.975
361.992;    8.100;   -8.284;  668.220
362.587;    6.043;   -8.625;  670.160
363.182;    6.821;   -7.674;  689.631
363.777;    7.808;   -5.164;  738.242
364.372;    8.449;   -8.604;  737.314
364.967;    4.796;   -9.055;  680.744
365.563;    7.960;   -6.114;  815.567
366.158;    4.818;   -5.814;  685.161
366.753;    5.965;   -7.854;  649.263
367.348;    4.268;   -7.804;  746.056
367.942;    4.314;   -7.954;  697.298
368.537;    3.115;   -4.984;  754.245
369.132;    3.582;   -8.564;  703.428
369.727;   -0.798;   -8.855;  638.079
370.322;    0.862;   -6.245;  580.186
370.917;    0.311;   -6.425;  710.646
371.511;    3.633;   -6.294;  861.834
372.106;    0.271;   -7.685;  776.964
372.701;   -3.305;   -7.335;  585.988
373.296;    1.948;   -4.564;  863.135
373.890;   -2.386;  -10.235;  647.840
374.485;   -4.339;   -7.885;  691.199
375.079;   -1.005;   -7.324;  738.685
375.674;    0.836;   -3.494;  812.970
376.268;   -3.396;   -8.525;  691.759
376.863;   -9.454;  -10.086;  580.327
377.457;   -3.783;   -7.025;  662.490
378.052;   -4.809;   -3.585;  764.884
378.646;   -5.928;   -7.595;  741.167
379.240;   -6.202;   -8.335;  721.176
379.835;   -5.083;   -5.785;  636.978
380.429;   -7.664;   -4.335;  562.557
381.023;   -6.653;   -6.805;  779.205
381.617;   -9.082;   -9.195;  680.106
382.212;   -6.650;   -6.905;  685.303
382.806;   -5.871;   -3.745;  760.690
383.400;   -9.714;   -7.745;  672.281
383.994;  -10.074;   -9.765;  664.870
384.588;   -6.327;   -6.564;  697.701
385.182;   -5.876;   -5.344;  726.624
385.776;   -6.178;   -8.514;  706.875
386.370;   -9.614;   -9.555;  681.968
386.964;   -9.492;   -8.715;  684.155
387.558;   -6.951;   -6.174;  598.360
388.152;  -10.444;   -8.725;  681.959
388.745;   -8.251;   -7.965;  814.707
389.339;   -6.047;   -5.924;  747.642
389.933;   -6.227;   -5.524;  695.370
390.527;   -7.014;   -7.114;  859.029
391.120;  -13.278;  -10.725;  595.318
391.714;  -11.099;   -8.035;  711.633
392.308;   -7.102;   -3.574;  780.253
392.901;  -11.078;   -7.245;  642.460
393.495;  -12.320;   -9.285;  595.414
394.089;  -10.643;   -5.895;  760.452
394.682;  -11.253;   -4.295;  697.188
395.275;  -11.476;   -9.875;  719.927
395.869;  -12.454;   -8.485;  667.314
396.462;  -11.325;   -7.455;  616.609
397.056;   -7.197;   -5.424;  776.621
397.649;  -11.927;   -6.605;  731.575
398.242;   -9.228;   -8.224;  712.645
398.836;   -8.867;   -7.474;  766.408
399.429;   -9.271;   -7.094;  631.041
400.022;  -13.510;   -9.475;  665.902
400.615;  -10.473;   -7.145;  805.609
401.208;   -8.992;   -7.174;  691.451
401.802;  -10.904;   -5.515;  699.329
402.395;  -12.006;   -9.875;  683.502
402.988;  -12.463;   -8.845;  696.627
403.581;  -10.177;   -8.874;  646.878
404.174;   -7.871;   -5.324;  686.568
404.767;  -10.487;   -9.575;  638.583
405.360;  -13.137;  -10.965;  621.445
405.953;   -8.336;   -8.764;  759.034
406.545;   -7.349;   -7.514;  725.342
407.138;  -11.321;  -10.025;  618.350
407.731;   -9.928;  -10.034;  613.303
408.324;   -5.763;   -9.374;  660.554
408.917;   -7.186;   -6.534;  681.864
409.509;   -9.308;   -8.004;  740.396
410.102;  -10.366;   -9.875;  643.948
410.695;   -4.820;   -8.604;  665.758
411.287;   -5.791;   -6.794;  599.821
411.880;   -7.145;   -9.334;  585.421
412.472;   -9.473;  -10.254;  613.092
413.065;   -7.405;   -6.714;  629.408
413.657;   -5.197;   -7.234;  576.678
414.250;   -5.173;  -10.544;  646.681
414.842;   -6.724;   -9.744;  676.353
415.434;   -4.826;   -6.994;  570.463
416.027;   -0.108;   -5.893;  652.196
416.619;   -2.299;   -7.264;  713.400
417.211;   -2.750;  -10.374;  599.352
417.804;    0.460;   -7.993;  628.499
418.396;   -3.184;   -7.234;  607.643
418.988;   -1.281;   -9.443;  659.238
419.580;   -3.580;  -10.724;  568.276
420.172;   -1.850;  -10.323;  536.196
420.764;    2.194;   -8.793;  672.482
421.356;    0.969;  -11.143;  636.898
421.948;    0.336;   -8.293;  677.661
422.540;    4.753;   -7.893;  680.027
423.132;    5.036;   -7.082;  600.641
423.724;    1.849;   -8.653;  561.267
424.316;    3.509;  -10.213;  621.345
424.908;    6.593;   -9.762;  591.517
425.500;    7.206;   -5.572;  647.978
426.092;    8.701;   -8.422;  648.268
426.683;    6.658;   -9.283;  684.836
427.275;    8.653;   -7.852;  641.471
427.867;   11.269;   -5.272;  668.948
428.458;   11.816;   -7.682;  732.344
429.050;   10.534;  -10.612;  680.749
429.642;   13.225;   -9.882;  743.124
430.233;   12.808;   -6.962;  569.356
430.825;   13.823;   -6.842;  724.809
431.416;   12.088;   -9.672;  698.241
432.008;   16.247;   -6.552;  651.723
432.599;   15.707;   -6.891;  656.073
433.190;   13.312;  -10.912;  637.670
433.782;   13.192;  -11.172;  590.395
434.373;   20.114;   -6.061;  884.765
434.964;   19.197;   -8.251;  602.920
435.556;   16.543;   -9.722;  634.537
436.147;   19.678;   -9.082;  758.490
436.738;   19.368;   -8.041;  701.099
437.329;   24.349;   -7.341;  721.723
437.920;   17.774;   -8.162;  666.688
438.511;   18.174;  -11.802;  564.526
439.103;   24.029;  -10.191;  623.998
439.694;   26.096;   -7.601;  681.583
440.285;   26.961;   -8.541;  764.432
440.876;   24.726;   -9.751;  845.738
441.466;   24.476;   -9.401;  575.162
442.057;   29.758;   -7.760;  665.814
442.648;   28.619;   -9.971;  746.255
443.239;   26.416;  -11.001;  620.477
443.830;   32.058;   -7.990;  704.958
444.421;   34.431;   -7.910;  655.474
445.011;   30.838;   -8.131;  693.619
445.602;   29.692;   -7.111;  743.126
446.193;   31.877;  -10.920;  488.117
446.783;   36.798;   -6.500;  640.397
447.374;   31.874;   -8.671;  692.759
447.964;   32.904;  -10.781;  713.770
448.555;   41.111;   -9.650;  822.742
449.145;   37.252;   -8.660;  662.853
449.736;   39.173;   -8.990;  803.179
450.326;   38.723;   -9.500;  713.626
450.917;   43.097;   -8.680;  675.324
451.507;   42.268;   -7.520;  600.661
452.097;   42.917;   -8.590;  746.267
452.688;   43.793;  -11.340;  742.160
453.278;   43.683;  -10.100;  566.840
453.868;   47.981;   -6.019;  793.550
454.458;   46.463;   -9.440;  651.141
455.048;   46.198;  -10.560;  711.783
455.639;   48.281;  -11.799;  567.096
456.229;   51.393;   -6.899;  710.694
456.819;   54.334;   -7.389;  751.158
457.409;   54.061;  -11.119;  773.993
457.999;   56.673;   -9.289;  737.505
458.589;   56.108;   -6.139;  686.606
459.179;   56.728;   -8.729;  717.658
459.769;   55.115;   -9.789;  627.099
460.358;   60.184;  -10.259;  797.262
460.948;   59.340;   -7.299;  689.503
461.538;   61.341;  -10.289;  660.677
462.128;   59.739;  -11.269;  664.934
462.717;   65.681;   -9.368;  710.326
463.307;   69.603;   -7.908;  705.846
463.897;   65.115;   -9.599;  656.942
464.486;   64.524;   -9.769;  837.128
465.076;   68.445;   -8.048;  733.776
465.666;   72.177;   -9.358;  652.900
466.255;   70.412;   -7.919;  785.651
466.845;   69.043;  -11.689;  666.749
467.434;   72.949;   -7.818;  725.873
468.023;   74.097;   -7.678;  658.357
468.613;   71.884;  -10.939;  713.946
469.202;   75.495;  -10.118;  646.507
469.791;   78.804;   -9.108;  737.811
470.381;   82.185;   -6.058;  742.813
470.970;   81.959;  -10.428;  711.099
471.559;   81.655;  -10.268;  733.291
472.148;   85.064;   -8.448;  675.737
472.738;   87.487;   -6.917;  765.466
473.327;   87.236;  -11.978;  637.529
473.916;   86.466;  -11.888;  737.446
474.505;   91.246;   -9.437;  751.703
475.094;   93.832;   -6.747;  806.570
475.683;   93.461;   -9.367;  797.699
476.272;   94.605;  -12.637;  730.632
476.861;   97.562;  -10.027;  706.754
477.449;  104.304;   -8.716;  728.487
478.038;   98.434;   -9.577;  692.513
478.627;   99.780;   -9.718;  714.852
479.216;  106.529;   -8.947;  769.441
479.805;  109.104;   -6.256;  783.375
480.393;  109.141;   -7.937; 1008.945
480.982;  108.802;   -7.717;  874.501
481.571;  114.900;   -9.266;  858.333
482.159;  115.097;   -7.636;  705.386
482.748;  115.559;   -9.667;  821.385
483.336;  120.344;  -10.376;  858.209
483.925;  121.390;   -7.147;  774.373
484.513;  128.103;   -7.996;  758.962
485.102;  125.576;  -10.027;  810.965
485.690;  133.607;  -10.446; 1011.050
486.278;  135.396;   -8.446;  979.329
486.867;  136.909;   -6.356;  809.662
487.455;  138.835;   -9.136;  898.229
488.043;  139.788;  -10.646;  748.361
488.631;  149.857;   -7.456; 1005.079
489.220;  152.908;   -6.636;  908.626
489.808;  153.846;  -11.036;  741.415
490.396;  162.848;  -10.246;  914.645
490.984;  168.462;   -8.556;  830.161
491.572;  179.122;   -5.886;  940.315
492.160;  186.102;   -9.486;  919.081
492.748;  198.377;  -10.976;  884.341
493.336;  222.483;   -8.776; 1019.693
493.924;  251.692;   -5.465;  958.077
494.512;  284.137;   -9.986; 1066.638
495.100;  328.751;  -10.636; 1103.280
495.687;  386.530;  -10.885; 1206.373
496.275;  452.815;   -8.126; 1150.796
496.863;  526.005;  -10.586; 1281.171
497.451;  637.394;  -11.926; 1386.805
498.038;  798.261;  -10.885; 1556.729
498.626;  926.410;   -6.315; 1741.407
499.214; 1074.346;   -7.326; 2016.609
499.801; 1300.886;  -11.906; 2220.633
500.389; 1588.370;  -10.466; 2312.494
500.976; 1980.915;   -5.236; 2744.849
501.564; 2424.344;   -8.936; 3148.565
502.151; 2832.040;  -13.176; 3515.999
502.738; 3376.177;  -10.646; 3971.274
503.326; 3796.939;   -9.525; 4403.796
503.913; 4294.195;  -10.856; 5161.749
504.500; 4681.445;  -11.586; 5986.420
505.088; 5133.804;  -10.336; 6381.201
505.675; 5720.054;   -6.355; 6925.547
506.262; 6370.456;   -9.046; 7619.060
506.849; 7200.702;  -10.416; 8733.969
507.436; 7741.989;  -10.305; 9790.121
508.023; 8171.197;   -5.496; 9985.472
508.610; 8507.419;   -7.856;10434.618
509.197; 9354.180;  -10.097;11198.435
509.784;11008.724;  -10.886;12391.194
510.371;12226.049;   -9.315;13603.713
510.958;12949.684;   -9.936;14426.586
511.545;13624.754;   -9.326;15243.775
512.132;14281.567;  -10.075;15945.876
512.719;14968.700;   -7.796;16340.369
513.305;16406.072;  -10.606;18011.766
513.892;17406.230;  -11.486;19754.971
514.479;18999.965;   -9.126;20967.805
515.066;20290.533;   -6.026;22299.793
515.652;21193.041;   -8.466;22908.660
516.239;22539.473;  -10.886;23798.875
516.825;23085.934;  -11.496;25567.275
517.412;24230.363;   -5.796;28154.959
517.998;25384.246;  -10.506;28344.111
518.585;25346.973;  -10.076;27134.219
519.171;25362.018;   -8.315;27268.576
519.758;27028.012;   -8.596;28964.129
520.344;28590.518;   -8.466;30664.494
520.930;28616.160;  -11.006;32550.605
521.516;30780.926;  -10.495;35422.895
522.103;33707.871;   -5.526;38280.004
522.689;34527.508;   -8.746;37835.117
523.275;33421.441;  -11.376;37288.613
523.861;33693.055;  -11.156;37281.395
524.447;35524.910;   -8.135;37846.949
525.033;35351.508;   -7.896;38321.949
525.619;35727.016;  -12.476;38579.285
526.205;37365.570;   -9.516;40622.875
526.791;40083.555;   -6.926;42258.836
527.377;40006.363;   -8.346;42966.902
527.963;42192.336;   -8.717;42018.949
528.549;41517.082;  -11.016;42476.828
529.135;39265.656;   -8.536;41854.852
529.721;38726.699;   -9.666;41237.711
530.306;38045.820;  -10.066;41259.445
530.892;38040.660;  -11.356;41506.047
531.478;39000.703;   -6.596;43559.613
532.063;41359.672;   -8.836;47695.563
532.649;41739.805;  -10.047;50808.324
533.235;43565.699;   -9.746;51787.500
533.820;45136.598;   -6.566;52145.035
534.406;45180.000;  -10.817;51133.488
534.991;44513.309;   -9.416;49996.805
535.576;43436.418;   -9.036;48882.852
536.162;43964.293;   -6.156;46942.285
536.747;44940.688;  -11.607;45711.746
537.333;48329.012;  -11.787;48510.180
537.918;50861.195;  -12.437;50439.891
538.503;49894.703;   -7.196;50863.711
539.088;47345.699;  -10.556;50906.922
539.673;48345.707;   -8.767;52621.965
540.259;48189.199;  -10.026;52368.094
540.844;44539.668;   -7.416;50879.109
541.429;44674.676;   -9.467;52077.777
542.014;48427.855;   -9.527;52716.695
542.599;49172.324;   -9.946;52363.281
543.184;45730.113;   -7.927;53187.137
543.769;46609.547;   -9.297;54697.605
544.354;46831.555;  -10.127;53913.914
544.938;46148.184;   -9.267;49680.164
545.523;48509.168;   -6.506;47386.277
546.108;50104.719;   -9.787;49151.949
546.693;52152.277;  -11.587;51384.637
547.278;52305.777;  -10.986;51853.254
547.862;48839.391;   -8.206;51173.750
548.447;44061.121;  -10.067;51691.395
549.031;43068.285;   -9.637;52456.703
549.616;47937.488;   -9.926;52714.516
550.201;47848.059;   -6.347;52414.598
550.785;47621.602;   -7.917;52355.059
551.370;47721.770;  -10.867;54589.453
551.954;48607.066;   -9.047;58267.348
552.538;50263.496;   -7.827;59062.176
553.123;48973.504;  -10.287;58115.285
553.707;46736.273;  -12.178;56556.285
554.291;46617.133;   -8.717;56201.668
554.876;46597.973;   -7.457;55335.762
555.460;47493.703;  -10.387;54155.703
556.044;50412.645;   -9.618;53721.484
556.628;48437.172;  -11.567;53731.016
557.212;47765.813;   -8.097;54312.531
557.796;46239.016;  -11.077;53797.773
558.380;46294.492;  -11.108;56145.984
558.964;46187.094;   -9.057;57277.930
559.548;46643.324;   -6.977;56459.641
560.132;45181.398;  -11.457;54434.543
560.716;44217.449;  -11.378;54800.617
561.300;44219.125;   -9.577;57606.945
561.884;45824.504;   -7.127;58972.445
562.467;45909.961;   -7.118;57327.570
563.051;44957.453;  -13.358;54962.434
563.635;45220.883;  -10.178;52594.473
564.219;46557.426;   -7.837;50610.410
564.802;47428.516;  -11.398;49551.180
565.386;47520.008;  -12.788;48370.953
565.969;46894.012;   -9.077;48178.871
566.553;46477.781;   -6.207;49957.305
567.136;46611.152;   -8.568;50369.594
567.720;42447.148;  -11.868;49492.004
568.303;40609.012;   -8.268;50616.352
568.887;40757.289;   -8.698;50727.148
569.470;41215.539;   -6.808;51698.379
570.053;39829.031;  -13.188;52122.078
570.637;38478.672;  -12.037;52536.438
571.220;38047.586;   -8.577;51186.098
571.803;38143.844;   -8.498;51032.762
572.386;40385.688;  -10.498;49609.887
572.969;43423.273;   -9.388;48285.926
573.552;42061.387;   -8.338;47624.285
574.135;41210.723;   -8.518;45498.641
574.718;37725.465;  -13.628;41970.434
575.301;36416.992;  -10.893;41447.137
575.884;35108.520;   -8.158;40923.836
576.467;35580.547;  -10.328;45267.723
577.050;38735.449;  -13.058;48175.543
577.633;40711.305;   -9.458;47729.328
578.216;39377.320;   -8.928;47579.793
578.799;38188.488;   -9.358;47820.996
579.381;36447.340;  -11.388;48115.551
579.964;34744.895;  -11.718;47333.766
580.547;35757.090;   -8.588;46668.969
581.129;36008.441;   -8.859;44466.141
581.712;36051.348;  -10.729;44164.922
582.294;36824.852;  -11.118;46477.855
582.877;37982.723;   -5.218;48244.254
583.459;36655.582;   -8.679;47437.895
584.042;34916.785;  -10.709;46943.219
584.624;34975.895;  -11.669;46792.227
585.206;33684.961;   -8.218;46557.250
585.789;34581.504;  -10.569;45793.773
586.371;37948.141;  -11.859;43836.391
586.953;38109.703;  -10.719;42972.492
587.536;38463.563;   -7.198;42487.211
588.118;38366.164;   -8.720;42086.414
588.700;35683.211;  -10.439;43389.930
589.282;34797.215;   -9.198;43646.039
589.864;34889.441;   -9.199;43438.109
590.446;36266.527;  -11.319;43151.926
591.028;35901.648;  -11.159;42781.867
591.610;35112.813;  -11.779;42839.098
592.192;32372.613;   -7.668;42820.402
592.774;30886.627;  -11.949;40724.277
593.356;29954.826;  -12.129;39874.789
593.937;29760.463;  -10.669;39980.648
594.519;32019.973;   -6.509;42069.633
595.101;33874.531;  -10.849;42976.031
