gmr_left
Integration time [ms]:   3.882
Averaging Nr. [scans]: 1000
Smoothing Nr. [pixels]: 0
Data measured with spectrometer [name]: 7414430SP
Wave   ;Sample   ;Dark     ;Reference
[nm]   ;[counts] ;[counts] ;[counts] 

288.544;  120.803;   10.292;  793.890
289.143;  123.626;    4.564;  681.602
289.742;  125.672;    6.144;  828.814
290.341;  113.969;    4.396;  789.841
290.940;  103.814;    0.938;  730.702
291.538;  104.512;   -0.684;  881.108
292.137;  104.236;   -2.845;  792.581
292.736;  107.793;   -0.144;  975.101
293.335;  103.667;   -6.352;  735.086
293.934;  103.801;   -7.642;  781.677
294.532;  105.122;   -4.992; 1031.958
295.131;   92.025;   -5.478;  834.394
295.730;   90.575;   -6.549;  809.588
296.328;   88.964;   -9.558;  783.442
296.927;   89.684;   -8.118;  779.652
297.525;   91.058;   -6.908;  781.236
298.124;   82.539;   -9.195;  654.009
298.722;   86.171;   -8.198;  761.933
299.321;   85.164;   -8.817;  708.597
299.919;   83.607;   -7.716;  751.918
300.518;   78.906;  -10.745;  689.338
301.116;   80.856;   -9.647;  691.381
301.715;   81.410;  -10.828;  730.222
302.313;   80.187;   -6.087;  704.943
302.911;   75.293;   -6.824;  733.830
303.509;   80.725;   -8.807;  925.627
304.108;   78.479;   -8.198;  760.383
304.706;   78.860;   -6.218;  801.664
305.304;   73.033;   -7.185;  796.707
305.902;   78.212;   -8.568;  784.484
306.500;   74.664;   -7.737;  728.200
307.098;   74.161;   -6.026;  746.560
307.696;   71.245;   -7.176;  780.432
308.294;   71.502;   -8.656;  731.359
308.892;   73.478;   -6.838;  759.769
309.490;   71.024;   -2.596;  712.161
310.088;   68.168;   -4.485;  788.444
310.686;   73.355;   -3.907;  821.749
311.284;   69.776;   -2.806;  766.040
311.882;   67.638;   -2.845;  731.225
312.480;   64.070;   -3.274;  697.167
313.078;   65.783;   -3.645;  808.331
313.675;   67.080;   -4.997;  691.600
314.273;   62.993;   -0.894;  797.837
314.871;   61.503;   -2.854;  589.829
315.468;   60.109;   -3.644;  652.090
316.066;   63.279;   -3.947;  694.427
316.664;   56.304;   -1.824;  656.351
317.261;   60.678;    1.565;  910.128
317.859;   56.903;   -3.955;  768.735
318.456;   58.287;   -2.886;  830.096
319.054;   54.777;   -0.995;  787.828
319.651;   53.097;   -1.765;  759.928
320.249;   52.521;   -3.685;  810.188
320.846;   50.005;   -3.736;  714.286
321.443;   49.224;   -2.065;  832.135
322.041;   46.681;   -5.635;  812.315
322.638;   44.077;   -5.985;  701.456
323.235;   47.094;   -6.677;  665.683
323.833;   45.201;   -3.497;  740.354
324.430;   40.187;   -6.756;  615.900
325.027;   41.636;   -7.647;  876.855
325.624;   42.689;   -7.598;  644.532
326.221;   39.713;   -5.848;  689.717
326.818;   39.836;   -5.777;  818.332
327.415;   42.057;   -8.769;  748.828
328.012;   41.829;   -6.299;  690.585
328.609;   40.490;   -6.639;  731.389
329.206;   38.338;   -6.358;  778.621
329.803;   37.525;   -8.698;  737.841
330.400;   39.464;   -8.379;  704.260
330.997;   39.862;   -6.178;  817.147
331.594;   37.610;   -5.646;  788.185
332.191;   40.999;   -6.928;  728.722
332.787;   42.755;   -6.057;  844.463
333.384;   41.085;   -6.445;  763.093
333.981;   38.958;   -8.002;  815.687
334.578;   39.469;   -8.443;  708.378
335.174;   42.367;   -6.053;  731.469
335.771;   43.153;   -5.791;  836.456
336.367;   39.849;   -6.570;  710.631
336.964;   40.655;   -6.741;  793.266
337.561;   41.542;   -5.710;  731.112
338.157;   39.232;   -3.928;  911.916
338.754;   36.082;   -5.577;  796.589
339.350;   33.621;   -9.667;  722.493
339.946;   37.712;   -5.269;  773.135
340.543;   30.946;   -4.485;  846.136
341.139;   25.762;   -7.584;  720.836
341.735;   24.031;   -8.553;  772.593
342.332;   22.885;   -4.984;  691.472
342.928;   24.974;   -3.475;  795.394
343.524;   18.964;   -6.653;  761.684
344.120;   15.849;   -7.173;  738.562
344.716;   19.617;   -4.385;  723.717
345.313;   16.413;   -3.565;  795.342
345.909;   12.689;   -7.495;  627.336
346.505;   14.521;   -8.276;  740.247
347.101;   16.392;   -5.697;  827.864
347.697;   17.011;   -4.767;  785.398
348.293;   10.973;   -7.226;  627.244
348.889;   12.173;   -7.547;  745.914
349.485;   11.726;   -9.147;  688.205
350.081;   12.960;   -6.568;  772.592
350.676;    7.634;   -6.516;  691.606
351.272;   12.557;   -7.378;  809.530
351.868;   12.063;   -6.759;  780.497
352.464;    9.923;   -4.798;  723.932
353.059;    5.473;   -7.977;  646.017
353.655;    9.219;   -8.769;  777.063
354.251;   10.715;   -5.920;  759.845
354.846;    5.828;   -7.647;  740.646
355.442;    3.162;   -6.956;  753.071
356.038;    4.738;   -9.928;  751.708
356.633;    5.901;   -7.698;  728.594
357.229;    4.351;   -6.307;  724.757
357.824;    2.192;   -7.647;  703.600
358.420;    0.806;  -10.047;  679.726
359.015;    2.335;   -7.458;  695.357
359.610;    4.173;   -5.748;  763.920
360.206;   -2.614;   -9.346;  603.240
360.801;    0.153;  -11.268;  646.503
361.396;    3.119;   -8.789;  725.975
361.992;   -1.465;   -6.347;  668.220
362.587;   -4.815;   -6.476;  670.160
363.182;   -2.565;   -9.457;  689.631
363.777;   -0.818;   -7.147;  738.242
364.372;   -1.262;   -5.507;  737.314
364.967;   -5.222;   -6.386;  680.744
365.563;   -1.134;   -7.858;  815.567
366.158;   -3.414;   -8.517;  685.161
366.753;   -2.307;   -8.728;  649.263
367.348;   -3.865;   -7.677;  746.056
367.942;   -4.781;  -10.387;  697.298
368.537;   -4.780;   -7.187;  754.245
369.132;   -4.932;   -8.587;  703.428
369.727;   -9.303;   -8.606;  638.079
370.322;   -8.124;  -10.426;  580.186
370.917;   -7.279;   -5.776;  710.646
371.511;   -3.797;   -6.007;  861.834
372.106;   -7.499;   -6.686;  776.964
372.701;  -10.752;   -9.335;  585.988
373.296;   -5.074;   -6.777;  863.135
373.890;   -9.811;   -7.546;  647.840
374.485;  -12.288;   -8.755;  691.199
375.079;   -7.146;   -9.797;  738.685
375.674;   -6.193;   -6.327;  812.970
376.268;   -9.872;   -9.046;  691.759
376.863;  -16.318;   -7.993;  580.327
377.457;  -10.099;   -9.206;  662.490
378.052;  -11.041;   -5.345;  764.884
378.646;  -12.117;   -5.605;  741.167
379.240;  -12.262;   -6.825;  721.176
379.835;  -12.265;  -10.476;  636.978
380.429;  -13.390;   -8.676;  562.557
381.023;  -12.759;   -4.945;  779.205
381.617;  -15.800;   -8.094;  680.106
382.212;  -12.255;  -10.646;  685.303
382.806;  -10.832;   -8.136;  760.690
383.400;  -14.434;   -7.855;  672.281
383.994;  -15.963;   -8.125;  664.870
384.588;  -11.815;   -7.637;  697.701
385.182;  -10.318;   -7.458;  726.624
385.776;  -11.658;   -6.277;  706.875
386.370;  -15.951;   -7.485;  681.968
386.964;  -14.266;   -9.416;  684.155
387.558;  -11.851;   -8.518;  598.360
388.152;  -14.372;   -7.096;  681.959
388.745;  -13.595;   -7.656;  814.707
389.339;  -11.980;   -8.927;  747.642
389.933;  -10.569;   -9.538;  695.370
390.527;  -11.245;   -5.857;  859.029
391.120;  -18.787;   -9.455;  595.318
391.714;  -15.242;   -9.746;  711.633
392.308;  -11.786;   -7.857;  780.253
392.901;  -14.733;   -9.106;  642.460
393.495;  -17.321;  -10.365;  595.414
394.089;  -15.301;   -9.696;  760.452
394.682;  -15.693;   -7.016;  697.188
395.275;  -15.402;   -8.466;  719.927
395.869;  -17.417;   -8.985;  667.314
396.462;  -16.483;  -11.496;  616.609
397.056;  -11.275;   -7.838;  776.621
397.649;  -15.626;   -6.895;  731.575
398.242;  -13.418;   -5.017;  712.645
398.836;  -12.975;   -8.787;  766.408
399.429;  -13.380;   -8.967;  631.041
400.022;  -17.062;   -8.815;  665.902
400.615;  -14.459;   -6.276;  805.609
401.208;  -12.536;   -8.407;  691.451
401.802;  -14.310;   -7.296;  699.329
402.395;  -15.244;   -7.585;  683.502
402.988;  -16.900;   -8.015;  696.627
403.581;  -13.024;   -9.577;  646.878
404.174;  -10.686;   -7.588;  686.568
404.767;  -13.759;   -7.906;  638.583
405.360;  -17.082;   -7.875;  621.445
405.953;  -10.808;   -8.127;  759.034
406.545;   -9.825;   -7.198;  725.342
407.138;  -13.620;   -8.916;  618.350
407.731;  -13.421;   -9.767;  613.303
408.324;   -9.262;  -10.659;  660.554
408.917;   -9.587;   -8.068;  681.864
409.509;  -11.552;   -9.837;  740.396
410.102;  -13.269;   -8.146;  643.948
410.695;   -7.957;   -7.969;  665.758
411.287;   -8.561;   -8.579;  599.821
411.880;   -9.491;   -6.968;  585.421
412.472;  -13.371;   -9.487;  613.092
413.065;  -10.470;  -10.338;  629.408
413.657;   -8.158;   -9.169;  576.678
414.250;   -7.335;  -10.119;  646.681
414.842;  -10.110;   -9.938;  676.353
415.434;   -7.789;  -10.409;  570.463
416.027;   -3.222;   -9.591;  652.196
416.619;   -4.813;   -7.379;  713.400
417.211;   -5.940;   -9.159;  599.352
417.804;   -1.981;   -9.191;  628.499
418.396;   -5.607;   -8.159;  607.643
418.988;   -2.905;   -6.960;  659.238
419.580;   -7.755;  -11.389;  568.276
420.172;   -5.092;  -13.460;  536.196
420.764;    0.107;  -10.701;  672.482
421.356;   -1.211;   -8.961;  636.898
421.948;   -1.965;   -9.770;  677.661
422.540;    2.431;   -8.832;  680.027
423.132;    1.944;   -8.153;  600.641
423.724;   -1.036;   -8.481;  561.267
424.316;    0.189;   -9.261;  621.345
424.908;    3.711;   -9.643;  591.517
425.500;    4.896;   -8.663;  647.978
426.092;    6.303;   -8.503;  648.268
426.683;    4.744;  -10.522;  684.836
427.275;    7.275;  -11.734;  641.471
427.867;    8.723;  -10.264;  668.948
428.458;    8.826;   -7.644;  732.344
429.050;    8.390;   -7.853;  680.749
429.642;   10.503;   -8.904;  743.124
430.233;    9.722;  -10.795;  569.356
430.825;   11.655;   -7.665;  724.809
431.416;    9.009;   -8.843;  698.241
432.008;   12.776;   -9.885;  651.723
432.599;   14.049;   -9.966;  656.073
433.190;   11.025;   -9.164;  637.670
433.782;    9.657;   -8.584;  590.395
434.373;   18.262;   -8.296;  884.765
434.964;   16.117;   -9.896;  602.920
435.556;   13.971;   -8.255;  634.537
436.147;   16.710;   -8.075;  758.490
436.738;   15.913;   -9.716;  701.099
437.329;   21.991;   -7.318;  721.723
437.920;   15.635;   -6.694;  666.688
438.511;   14.168;   -9.644;  564.526
439.103;   21.758;   -9.427;  623.998
439.694;   23.611;  -10.748;  681.583
440.285;   24.319;   -7.997;  764.432
440.876;   22.577;  -10.046;  845.738
441.466;   21.420;  -13.467;  575.162
442.057;   27.378;   -9.329;  665.814
442.648;   26.917;   -7.707;  746.255
443.239;   22.981;   -9.017;  620.477
443.830;   28.738;  -10.279;  704.958
444.421;   31.233;  -12.630;  655.474
445.011;   27.828;   -8.697;  693.619
445.602;   27.047;   -7.787;  743.126
446.193;   28.744;  -13.329;  488.117
446.783;   33.941;   -9.171;  640.397
447.374;   29.180;   -7.457;  692.759
447.964;   29.704;   -9.277;  713.770
448.555;   38.406;   -9.041;  822.742
449.145;   34.696;   -8.969;  662.853
449.736;   35.887;   -6.809;  803.179
450.326;   35.744;   -7.229;  713.626
450.917;   40.035;  -11.391;  675.324
451.507;   40.175;   -9.501;  600.661
452.097;   41.111;   -8.460;  746.267
452.688;   41.160;  -10.080;  742.160
453.278;   41.382;  -12.861;  566.840
453.868;   45.415;   -8.372;  793.550
454.458;   43.396;   -8.131;  651.141
455.048;   44.017;   -8.520;  711.783
455.639;   44.945;  -13.632;  567.096
456.229;   48.945;  -10.143;  710.694
456.819;   51.674;   -9.163;  751.158
457.409;   51.726;   -8.652;  773.993
457.999;   53.684;   -9.933;  737.505
458.589;   53.521;  -10.363;  686.606
459.179;   54.033;  -10.633;  717.658
459.769;   51.818;  -12.442;  627.099
460.358;   57.259;   -9.844;  797.262
460.948;   56.677;   -9.924;  689.503
461.538;   59.208;  -10.484;  660.677
462.128;   56.616;  -10.703;  664.934
462.717;   61.964;  -11.486;  710.326
463.307;   66.084;  -10.767;  705.846
463.897;   62.084;   -8.814;  656.942
464.486;   61.179;   -8.182;  837.128
465.076;   65.538;   -9.985;  733.776
465.666;   68.998;  -10.447;  652.900
466.255;   67.642;   -7.754;  785.651
466.845;   66.374;  -10.884;  666.749
467.434;   68.504;  -12.525;  725.873
468.023;   70.331;  -11.456;  658.357
468.613;   68.340;   -9.173;  713.946
469.202;   71.990;   -9.306;  646.507
469.791;   75.811;   -8.917;  737.811
470.381;   76.887;   -9.657;  742.813
470.970;   77.952;   -9.947;  711.099
471.559;   77.315;   -9.256;  733.291
472.148;   80.355;  -13.397;  675.737
472.738;   83.080;   -9.928;  765.466
473.327;   83.187;  -10.897;  637.529
473.916;   82.223;   -8.526;  737.446
474.505;   86.622;  -11.078;  751.703
475.094;   90.371;   -9.559;  806.570
475.683;   89.825;   -8.838;  797.699
476.272;   90.228;  -10.198;  730.632
476.861;   93.996;  -11.489;  706.754
477.449;   99.619;  -10.721;  728.487
478.038;   94.880;   -9.818;  692.513
478.627;   95.261;   -9.887;  714.852
479.216;  101.429;  -10.030;  769.441
479.805;  105.198;   -9.401;  783.375
480.393;  105.478;   -5.739; 1008.945
480.982;  104.138;   -7.838;  874.501
481.571;  110.939;   -9.111;  858.333
482.159;  111.505;  -10.601;  705.386
482.748;  111.227;   -8.500;  821.385
483.336;  115.227;   -9.241;  858.209
483.925;  116.677;  -10.440;  774.373
484.513;  123.102;  -11.063;  758.962
485.102;  120.156;   -9.540;  810.965
485.690;  128.854;   -6.742; 1011.050
486.278;  130.469;   -8.442;  979.329
486.867;  130.863;  -10.472;  809.662
487.455;  133.383;   -8.811;  898.229
488.043;  134.604;  -10.721;  748.361
488.631;  144.144;  -10.393; 1005.079
489.220;  147.803;  -10.843;  908.626
489.808;  148.909;  -10.572;  741.415
490.396;  157.102;  -10.482;  914.645
490.984;  163.048;  -11.542;  830.161
491.572;  174.225;   -8.463;  940.315
492.160;  182.184;   -8.491;  919.081
492.748;  194.685;   -9.681;  884.341
493.336;  218.683;  -10.493; 1019.693
493.924;  249.935;   -9.354;  958.077
494.512;  287.593;   -9.132; 1066.638
495.100;  328.010;   -9.001; 1103.280
495.687;  386.825;  -11.924; 1206.373
496.275;  468.095;  -11.193; 1150.796
496.863;  557.529;   -9.241; 1281.171
497.451;  667.201;  -11.341; 1386.805
498.038;  789.521;  -11.364; 1556.729
498.626;  909.705;   -8.104; 1741.407
499.214; 1125.499;   -8.842; 2016.609
499.801; 1409.661;  -10.112; 2220.633
500.389; 1638.133;  -11.953; 2312.494
500.976; 1849.751;  -10.023; 2744.849
501.564; 2146.869;   -8.662; 3148.565
502.151; 2589.181;  -10.531; 3515.999
502.738; 3082.801;  -13.853; 3971.274
503.326; 3640.575;  -10.794; 4403.796
503.913; 4247.385;   -8.663; 5161.749
504.500; 4857.737;  -10.172; 5986.420
505.088; 5825.872;  -13.472; 6381.201
505.675; 6554.190;  -10.924; 6925.547
506.262; 6838.465;   -8.551; 7619.060
506.849; 7562.003;  -10.523; 8733.969
507.436; 8554.717;  -10.834; 9790.121
508.023; 8817.507;   -9.093; 9985.472
508.610; 9156.503;  -10.073;10434.618
509.197;10423.273;   -9.500;11198.435
509.784;12462.664;  -13.242;12391.194
510.371;13402.384;  -10.964;13603.713
510.958;14326.152;   -9.772;14426.586
511.545;14988.215;   -7.842;15243.775
512.132;14960.297;  -12.184;15945.876
512.719;16499.133;   -9.733;16340.369
513.305;19063.863;   -9.172;18011.766
513.892;20065.539;   -9.581;19754.971
514.479;20883.619;  -10.253;20967.805
515.066;21198.523;   -8.183;22299.793
515.652;22007.320;   -9.253;22908.660
516.239;23333.281;   -9.412;23798.875
516.825;23826.422;  -11.153;25567.275
517.412;22081.129;  -10.263;28154.959
517.998;20522.602;   -8.802;28344.111
518.585;20317.936;  -10.401;27134.219
519.171;21875.174;  -12.744;27268.576
519.758;25038.668;  -11.793;28964.129
520.344;29396.330;   -8.912;30664.494
520.930;32935.191;  -10.901;32550.605
521.516;32984.301;  -12.034;35422.895
522.103;33949.656;  -10.473;38280.004
522.689;35305.258;   -8.311;37835.117
523.275;36670.820;  -10.691;37288.613
523.861;37478.660;  -11.193;37281.395
524.447;35255.367;  -11.484;37846.949
525.033;35635.199;   -7.702;38321.949
525.619;36182.059;  -11.241;38579.285
526.205;36470.539;  -12.152;40622.875
526.791;37576.148;  -11.423;42258.836
527.377;38335.707;   -7.981;42966.902
527.963;38052.863;   -9.450;42018.949
528.549;38428.754;  -11.351;42476.828
529.135;39553.770;  -10.202;41854.852
529.721;39123.828;   -8.672;41237.711
530.306;36686.590;   -9.111;41259.445
530.892;38933.844;  -11.252;41506.047
531.478;41896.918;  -10.432;43559.613
532.063;43475.473;  -10.721;47695.563
532.649;44951.191;   -7.450;50808.324
533.235;46073.738;  -11.811;51787.500
533.820;45191.234;   -9.383;52145.035
534.406;42570.789;   -9.400;51133.488
534.991;42875.586;   -8.861;49996.805
535.576;44508.824;  -10.612;48882.852
536.162;41947.465;   -7.322;46942.285
536.747;41598.641;   -9.360;45711.746
537.333;44149.410;  -10.450;48510.180
537.918;47315.379;  -12.610;50439.891
538.503;47454.535;  -12.132;50863.711
539.088;44085.570;  -10.831;50906.922
539.673;43788.238;  -11.220;52621.965
540.259;46215.512;  -11.481;52368.094
540.844;45975.973;  -11.462;50879.109
541.429;47099.086;   -7.869;52077.777
542.014;45597.852;  -11.859;52716.695
542.599;42738.867;  -11.061;52363.281
543.184;42471.762;  -12.300;53187.137
543.769;44165.102;   -9.369;54697.605
544.354;44887.219;  -12.020;53913.914
544.938;41123.680;  -10.350;49680.164
545.523;38111.078;  -10.841;47386.277
546.108;40561.008;   -8.579;49151.949
546.693;42886.484;   -8.818;51384.637
547.278;42880.215;  -11.331;51853.254
547.862;40248.309;  -10.292;51173.750
548.447;37395.691;   -8.349;51691.395
549.031;36092.191;  -10.838;52456.703
549.616;40132.355;  -11.681;52714.516
550.201;45224.336;  -11.140;52414.598
550.785;45133.781;   -8.649;52355.059
551.370;47197.203;  -11.889;54589.453
551.954;47987.277;  -11.239;58267.348
552.538;48869.621;   -8.850;59062.176
553.123;50643.238;  -10.829;58115.285
553.707;51035.938;   -8.887;56556.285
554.291;48102.977;  -10.430;56201.668
554.876;47832.270;   -9.799;55335.762
555.460;45220.469;  -10.018;54155.703
556.044;45314.473;   -7.307;53721.484
556.628;48372.859;  -12.229;53731.016
557.212;48872.441;   -9.820;54312.531
557.796;46887.492;   -9.109;53797.773
558.380;45239.930;   -9.707;56145.984
558.964;47975.914;  -10.980;57277.930
559.548;50691.914;  -12.010;56459.641
560.132;51033.863;   -7.928;54434.543
560.716;53609.070;  -10.247;54800.617
561.300;53017.313;  -11.250;57606.945
561.884;51023.660;  -10.568;58972.445
562.467;48853.805;   -9.727;57327.570
563.051;45513.906;  -11.847;54962.434
563.635;44972.582;  -10.747;52594.473
564.219;43598.773;  -13.108;50610.410
564.802;42640.242;  -11.417;49551.180
565.386;41779.223;  -10.457;48370.953
565.969;45182.547;   -8.959;48178.871
566.553;46331.500;  -10.328;49957.305
567.136;46079.949;  -10.257;50369.594
567.720;44544.547;  -10.186;49492.004
568.303;43650.637;  -10.027;50616.352
568.887;44649.277;  -10.397;50727.148
569.470;45900.473;   -8.185;51698.379
570.053;44006.676;  -11.596;52122.078
570.637;42522.633;  -11.378;52536.438
571.220;42553.551;   -9.138;51186.098
571.803;41825.828;   -7.675;51032.762
572.386;40825.984;   -8.976;49609.887
572.969;41475.313;  -12.477;48285.926
573.552;41155.836;   -9.767;47624.285
574.135;38848.797;   -8.175;45498.641
574.718;34210.590;  -11.096;41970.434
575.301;34233.227;  -11.966;41447.137
575.884;34255.859;  -12.836;40923.836
576.467;39836.180;   -9.116;45267.723
577.050;41468.426;  -10.536;48175.543
577.633;40089.125;  -11.027;47729.328
578.216;39343.645;   -9.946;47579.793
578.799;40114.465;   -9.645;47820.996
579.381;39401.828;   -9.446;48115.551
579.964;39062.926;  -12.217;47333.766
580.547;39184.949;  -10.586;46668.969
581.129;39083.801;   -8.374;44466.141
581.712;38271.602;  -10.434;44164.922
582.294;37476.672;  -10.896;46477.855
582.877;38672.371;   -8.906;48244.254
583.459;39036.535;   -9.994;47437.895
584.042;37960.109;  -10.084;46943.219
584.624;36237.871;  -13.534;46792.227
585.206;36579.699;  -12.716;46557.250
585.789;37363.574;  -11.614;45793.773
586.371;36860.457;  -10.203;43836.391
586.953;35190.688;  -10.314;42972.492
587.536;33851.156;   -9.776;42487.211
588.118;34224.156;   -9.821;42086.414
588.700;35393.703;  -10.073;43389.930
589.282;36990.672;  -12.395;43646.039
589.864;37316.492;  -11.514;43438.109
590.446;38067.898;  -10.803;43151.926
591.028;39181.152;  -11.043;42781.867
591.610;37888.969;  -13.244;42839.098
592.192;35244.039;  -11.095;42820.402
592.774;32991.652;  -10.823;40724.277
593.356;32675.785;  -11.052;39874.789
593.937;33876.766;  -11.664;39980.648
594.519;35200.969;  -10.454;42069.633
595.101;35282.383;  -10.322;42976.031
