
Integration time [ms]:   3.276
Averaging Nr. [scans]: 1000
Smoothing Nr. [pixels]: 0
Data measured with spectrometer [name]: 7414430SP
Wave   ;Sample   ;Dark     ;Reference
[nm]   ;[counts] ;[counts] ;[counts] 

288.544;  160.957;    7.793;  793.890
289.143;  163.449;    7.462;  681.602
289.742;  165.010;    8.602;  828.814
290.341;  150.440;    1.321;  789.841
290.940;  141.103;   -0.709;  730.702
291.538;  143.849;    0.881;  881.108
292.137;  142.126;    0.122;  792.581
292.736;  145.978;   -1.929;  975.101
293.335;  140.814;   -8.229;  735.086
293.934;  141.901;   -5.279;  781.677
294.532;  143.048;   -1.369; 1031.958
295.131;  129.692;   -7.641;  834.394
295.730;  129.727;   -8.420;  809.588
296.328;  125.813;   -5.611;  783.442
296.927;  125.013;   -5.781;  779.652
297.525;  126.952;   -6.361;  781.236
298.124;  119.034;  -11.382;  654.009
298.722;  123.884;   -7.641;  761.933
299.321;  120.290;   -6.811;  708.597
299.919;  117.150;   -6.991;  751.918
300.518;  114.210;  -10.362;  689.338
301.116;  115.162;   -9.581;  691.381
301.715;  115.819;   -4.891;  730.222
302.313;  114.482;   -8.801;  704.943
302.911;  109.764;   -8.522;  733.830
303.509;  114.177;   -6.171;  925.627
304.108;  112.971;   -7.311;  760.383
304.706;  111.882;   -8.321;  801.664
305.304;  106.664;  -10.222;  796.707
305.902;  110.946;   -6.021;  784.484
306.500;  105.864;   -4.971;  728.200
307.098;  105.566;   -7.061;  746.560
307.696;  103.569;   -8.801;  780.432
308.294;  104.341;   -6.411;  731.359
308.892;  105.089;   -2.901;  759.769
309.490;  102.537;   -5.041;  712.161
310.088;  100.119;   -5.002;  788.444
310.686;  104.234;   -2.041;  821.749
311.284;   99.291;   -2.351;  766.040
311.882;   97.688;   -4.422;  731.225
312.480;   94.951;   -4.192;  697.167
313.078;   95.290;   -1.172;  808.331
313.675;   96.564;   -2.601;  691.600
314.273;   91.580;   -1.312;  797.837
314.871;   90.579;   -3.942;  589.829
315.468;   87.968;   -2.802;  652.090
316.066;   91.213;   -0.701;  694.427
316.664;   84.698;   -4.362;  656.351
317.261;   88.119;   -2.872;  910.128
317.859;   84.039;   -2.022;  768.735
318.456;   83.909;   -0.531;  830.096
319.054;   80.252;   -3.912;  787.828
319.651;   79.335;   -4.752;  759.928
320.249;   77.410;   -2.602;  810.188
320.846;   74.771;   -0.821;  714.286
321.443;   73.738;   -4.642;  832.135
322.041;   69.638;   -5.002;  812.315
322.638;   67.207;   -3.982;  701.456
323.235;   67.873;   -3.411;  665.683
323.833;   64.826;   -7.361;  740.354
324.430;   60.916;   -8.611;  615.900
325.027;   61.330;   -4.061;  876.855
325.624;   61.250;   -4.031;  644.532
326.221;   58.407;   -7.481;  689.717
326.818;   58.131;   -5.281;  818.332
327.415;   60.208;   -7.460;  748.828
328.012;   60.238;   -5.510;  690.585
328.609;   59.141;   -7.880;  731.389
329.206;   57.118;   -8.331;  778.621
329.803;   56.964;   -5.121;  737.841
330.400;   59.071;   -4.510;  704.260
330.997;   60.568;   -6.441;  817.147
331.594;   57.914;   -8.831;  788.185
332.191;   63.463;   -7.621;  728.722
332.787;   67.432;   -4.591;  844.463
333.384;   67.212;   -7.412;  763.093
333.981;   65.849;   -8.293;  815.687
334.578;   68.182;   -7.052;  708.378
335.174;   70.457;   -3.102;  731.469
335.771;   70.624;   -5.943;  836.456
336.367;   67.540;   -7.393;  710.631
336.964;   71.502;   -4.063;  793.266
337.561;   69.889;   -3.813;  731.112
338.157;   66.022;   -4.654;  911.916
338.754;   63.634;   -7.934;  796.589
339.350;   63.560;   -4.414;  722.493
339.946;   64.371;   -4.664;  773.135
340.543;   55.963;   -6.375;  846.136
341.139;   50.486;   -9.815;  720.836
341.735;   48.376;   -4.526;  772.593
342.332;   48.161;   -4.895;  691.472
342.928;   46.395;   -4.295;  795.394
343.524;   40.035;   -5.476;  761.684
344.120;   36.853;   -5.856;  738.562
344.716;   39.811;   -2.155;  723.717
345.313;   36.283;   -6.275;  795.342
345.909;   31.338;   -8.815;  627.336
346.505;   32.768;   -5.305;  740.247
347.101;   33.563;   -2.674;  827.864
347.697;   33.841;   -4.344;  785.398
348.293;   28.060;   -9.975;  627.244
348.889;   29.031;   -5.774;  745.914
349.485;   28.756;   -5.004;  688.205
350.081;   28.983;   -4.704;  772.592
350.676;   24.328;   -6.635;  691.606
351.272;   29.291;   -4.504;  809.530
351.868;   27.448;   -3.914;  780.497
352.464;   24.888;   -9.044;  723.932
353.059;   21.855;   -8.314;  646.017
353.655;   24.930;   -7.024;  777.063
354.251;   26.448;   -5.343;  759.845
354.846;   20.575;   -8.604;  740.646
355.442;   18.166;   -6.945;  753.071
356.038;   19.966;   -7.564;  751.708
356.633;   20.424;   -5.814;  728.594
357.229;   17.837;   -7.364;  724.757
357.824;   17.233;   -8.024;  703.600
358.420;   15.420;   -9.384;  679.726
359.015;   15.194;   -5.104;  695.357
359.610;   17.265;   -6.854;  763.920
360.206;   10.463;  -10.185;  603.240
360.801;   13.277;   -7.054;  646.503
361.396;   16.287;   -5.034;  725.975
361.992;   11.714;   -8.284;  668.220
362.587;    9.415;   -8.625;  670.160
363.182;   10.458;   -7.674;  689.631
363.777;   11.827;   -5.164;  738.242
364.372;   10.853;   -8.604;  737.314
364.967;    7.674;   -9.055;  680.744
365.563;   11.587;   -6.114;  815.567
366.158;    8.462;   -5.814;  685.161
366.753;    8.947;   -7.854;  649.263
367.348;    7.654;   -7.804;  746.056
367.942;    6.881;   -7.954;  697.298
368.537;    6.333;   -4.984;  754.245
369.132;    6.239;   -8.564;  703.428
369.727;    1.814;   -8.855;  638.079
370.322;    3.729;   -6.245;  580.186
370.917;    3.756;   -6.425;  710.646
371.511;    6.280;   -6.294;  861.834
372.106;    2.673;   -7.685;  776.964
372.701;   -0.890;   -7.335;  585.988
373.296;    5.161;   -4.564;  863.135
373.890;   -0.240;  -10.235;  647.840
374.485;   -2.111;   -7.885;  691.199
375.079;    1.649;   -7.324;  738.685
375.674;    2.662;   -3.494;  812.970
376.268;   -1.384;   -8.525;  691.759
376.863;   -6.778;  -10.086;  580.327
377.457;   -0.128;   -7.025;  662.490
378.052;   -2.053;   -3.585;  764.884
378.646;   -3.109;   -7.595;  741.167
379.240;   -2.544;   -8.335;  721.176
379.835;   -2.582;   -5.785;  636.978
380.429;   -4.628;   -4.335;  562.557
381.023;   -5.024;   -6.805;  779.205
381.617;   -7.162;   -9.195;  680.106
382.212;   -4.101;   -6.905;  685.303
382.806;   -3.357;   -3.745;  760.690
383.400;   -7.206;   -7.745;  672.281
383.994;   -8.174;   -9.765;  664.870
384.588;   -4.109;   -6.564;  697.701
385.182;   -2.904;   -5.344;  726.624
385.776;   -5.041;   -8.514;  706.875
386.370;   -8.371;   -9.555;  681.968
386.964;   -6.612;   -8.715;  684.155
387.558;   -5.362;   -6.174;  598.360
388.152;   -8.804;   -8.725;  681.959
388.745;   -6.862;   -7.965;  814.707
389.339;   -5.700;   -5.924;  747.642
389.933;   -3.953;   -5.524;  695.370
390.527;   -5.616;   -7.114;  859.029
391.120;  -11.504;  -10.725;  595.318
391.714;   -8.856;   -8.035;  711.633
392.308;   -5.149;   -3.574;  780.253
392.901;   -9.552;   -7.245;  642.460
393.495;  -11.047;   -9.285;  595.414
394.089;   -8.795;   -5.895;  760.452
394.682;   -9.182;   -4.295;  697.188
395.275;   -9.937;   -9.875;  719.927
395.869;  -11.338;   -8.485;  667.314
396.462;   -9.548;   -7.455;  616.609
397.056;   -5.329;   -5.424;  776.621
397.649;  -10.584;   -6.605;  731.575
398.242;   -7.268;   -8.224;  712.645
398.836;   -7.238;   -7.474;  766.408
399.429;   -8.439;   -7.094;  631.041
400.022;  -11.611;   -9.475;  665.902
400.615;   -9.157;   -7.145;  805.609
401.208;   -6.666;   -7.174;  691.451
401.802;   -9.588;   -5.515;  699.329
402.395;   -9.948;   -9.875;  683.502
402.988;  -10.845;   -8.845;  696.627
403.581;   -8.489;   -8.874;  646.878
404.174;   -5.452;   -5.324;  686.568
404.767;   -9.074;   -9.575;  638.583
405.360;  -10.869;  -10.965;  621.445
405.953;   -6.575;   -8.764;  759.034
406.545;   -5.323;   -7.514;  725.342
407.138;   -9.188;  -10.025;  618.350
407.731;   -8.063;  -10.034;  613.303
408.324;   -4.766;   -9.374;  660.554
408.917;   -5.923;   -6.534;  681.864
409.509;   -6.983;   -8.004;  740.396
410.102;   -9.092;   -9.875;  643.948
410.695;   -2.780;   -8.604;  665.758
411.287;   -4.069;   -6.794;  599.821
411.880;   -5.691;   -9.334;  585.421
412.472;   -8.485;  -10.254;  613.092
413.065;   -5.595;   -6.714;  629.408
413.657;   -2.977;   -7.234;  576.678
414.250;   -3.915;  -10.544;  646.681
414.842;   -4.961;   -9.744;  676.353
415.434;   -3.441;   -6.994;  570.463
416.027;    1.762;   -5.893;  652.196
416.619;   -0.659;   -7.264;  713.400
417.211;   -0.943;  -10.374;  599.352
417.804;    2.655;   -7.993;  628.499
418.396;   -1.072;   -7.234;  607.643
418.988;    0.725;   -9.443;  659.238
419.580;   -2.368;  -10.724;  568.276
420.172;   -0.849;  -10.323;  536.196
420.764;    4.317;   -8.793;  672.482
421.356;    2.129;  -11.143;  636.898
421.948;    1.590;   -8.293;  677.661
422.540;    6.706;   -7.893;  680.027
423.132;    5.989;   -7.082;  600.641
423.724;    3.332;   -8.653;  561.267
424.316;    4.819;  -10.213;  621.345
424.908;    8.458;   -9.762;  591.517
425.500;    8.804;   -5.572;  647.978
426.092;    9.136;   -8.422;  648.268
426.683;    8.777;   -9.283;  684.836
427.275;   11.178;   -7.852;  641.471
427.867;   13.133;   -5.272;  668.948
428.458;   13.318;   -7.682;  732.344
429.050;   12.060;  -10.612;  680.749
429.642;   13.950;   -9.882;  743.124
430.233;   14.818;   -6.962;  569.356
430.825;   15.333;   -6.842;  724.809
431.416;   13.584;   -9.672;  698.241
432.008;   16.466;   -6.552;  651.723
432.599;   17.406;   -6.891;  656.073
433.190;   15.141;  -10.912;  637.670
433.782;   13.979;  -11.172;  590.395
434.373;   21.351;   -6.061;  884.765
434.964;   20.465;   -8.251;  602.920
435.556;   17.178;   -9.722;  634.537
436.147;   20.552;   -9.082;  758.490
436.738;   20.835;   -8.041;  701.099
437.329;   25.964;   -7.341;  721.723
437.920;   18.956;   -8.162;  666.688
438.511;   19.070;  -11.802;  564.526
439.103;   25.635;  -10.191;  623.998
439.694;   27.181;   -7.601;  681.583
440.285;   28.224;   -8.541;  764.432
440.876;   26.369;   -9.751;  845.738
441.466;   26.159;   -9.401;  575.162
442.057;   30.978;   -7.760;  665.814
442.648;   29.331;   -9.971;  746.255
443.239;   28.030;  -11.001;  620.477
443.830;   33.141;   -7.990;  704.958
444.421;   34.762;   -7.910;  655.474
445.011;   31.753;   -8.131;  693.619
445.602;   31.322;   -7.111;  743.126
446.193;   32.906;  -10.920;  488.117
446.783;   37.981;   -6.500;  640.397
447.374;   33.275;   -8.671;  692.759
447.964;   33.484;  -10.781;  713.770
448.555;   41.896;   -9.650;  822.742
449.145;   38.432;   -8.660;  662.853
449.736;   39.419;   -8.990;  803.179
450.326;   40.238;   -9.500;  713.626
450.917;   44.371;   -8.680;  675.324
451.507;   44.221;   -7.520;  600.661
452.097;   44.334;   -8.590;  746.267
452.688;   47.079;  -11.340;  742.160
453.278;   45.577;  -10.100;  566.840
453.868;   49.334;   -6.019;  793.550
454.458;   47.962;   -9.440;  651.141
455.048;   48.540;  -10.560;  711.783
455.639;   49.843;  -11.799;  567.096
456.229;   53.166;   -6.899;  710.694
456.819;   55.483;   -7.389;  751.158
457.409;   56.229;  -11.119;  773.993
457.999;   58.679;   -9.289;  737.505
458.589;   58.548;   -6.139;  686.606
459.179;   58.690;   -8.729;  717.658
459.769;   56.750;   -9.789;  627.099
460.358;   61.605;  -10.259;  797.262
460.948;   61.118;   -7.299;  689.503
461.538;   63.203;  -10.289;  660.677
462.128;   61.625;  -11.269;  664.934
462.717;   67.549;   -9.368;  710.326
463.307;   70.835;   -7.908;  705.846
463.897;   66.819;   -9.599;  656.942
464.486;   66.652;   -9.769;  837.128
465.076;   70.573;   -8.048;  733.776
465.666;   73.525;   -9.358;  652.900
466.255;   72.129;   -7.919;  785.651
466.845;   70.656;  -11.689;  666.749
467.434;   74.122;   -7.818;  725.873
468.023;   75.715;   -7.678;  658.357
468.613;   73.792;  -10.939;  713.946
469.202;   77.530;  -10.118;  646.507
469.791;   81.871;   -9.108;  737.811
470.381;   84.109;   -6.058;  742.813
470.970;   83.064;  -10.428;  711.099
471.559;   83.405;  -10.268;  733.291
472.148;   86.321;   -8.448;  675.737
472.738;   89.254;   -6.917;  765.466
473.327;   88.222;  -11.978;  637.529
473.916;   88.308;  -11.888;  737.446
474.505;   92.295;   -9.437;  751.703
475.094;   96.754;   -6.747;  806.570
475.683;   95.898;   -9.367;  797.699
476.272;   96.335;  -12.637;  730.632
476.861;   99.208;  -10.027;  706.754
477.449;  104.662;   -8.716;  728.487
478.038;  100.545;   -9.577;  692.513
478.627;  101.759;   -9.718;  714.852
479.216;  108.505;   -8.947;  769.441
479.805;  110.995;   -6.256;  783.375
480.393;  111.607;   -7.937; 1008.945
480.982;  110.285;   -7.717;  874.501
481.571;  116.154;   -9.266;  858.333
482.159;  117.392;   -7.636;  705.386
482.748;  117.072;   -9.667;  821.385
483.336;  122.352;  -10.376;  858.209
483.925;  122.696;   -7.147;  774.373
484.513;  130.310;   -7.996;  758.962
485.102;  127.220;  -10.027;  810.965
485.690;  135.664;  -10.446; 1011.050
486.278;  137.700;   -8.446;  979.329
486.867;  138.070;   -6.356;  809.662
487.455;  141.572;   -9.136;  898.229
488.043;  142.985;  -10.646;  748.361
488.631;  151.444;   -7.456; 1005.079
489.220;  156.463;   -6.636;  908.626
489.808;  157.151;  -11.036;  741.415
490.396;  164.933;  -10.246;  914.645
490.984;  171.834;   -8.556;  830.161
491.572;  184.083;   -5.886;  940.315
492.160;  190.931;   -9.486;  919.081
492.748;  205.590;  -10.976;  884.341
493.336;  230.099;   -8.776; 1019.693
493.924;  257.966;   -5.465;  958.077
494.512;  293.981;   -9.986; 1066.638
495.100;  342.030;  -10.636; 1103.280
495.687;  402.181;  -10.885; 1206.373
496.275;  476.033;   -8.126; 1150.796
496.863;  560.257;  -10.586; 1281.171
497.451;  679.466;  -11.926; 1386.805
498.038;  793.796;  -10.885; 1556.729
498.626;  917.046;   -6.315; 1741.407
499.214; 1086.311;   -7.326; 2016.609
499.801; 1296.890;  -11.906; 2220.633
500.389; 1498.389;  -10.466; 2312.494
500.976; 1766.301;   -5.236; 2744.849
501.564; 2252.921;   -8.936; 3148.565
502.151; 2817.232;  -13.176; 3515.999
502.738; 3354.058;  -10.646; 3971.274
503.326; 3811.298;   -9.525; 4403.796
503.913; 4250.112;  -10.856; 5161.749
504.500; 4809.847;  -11.586; 5986.420
505.088; 5407.195;  -10.336; 6381.201
505.675; 5626.344;   -6.355; 6925.547
506.262; 6111.404;   -9.046; 7619.060
506.849; 6584.672;  -10.416; 8733.969
507.436; 7018.294;  -10.305; 9790.121
508.023; 7750.558;   -5.496; 9985.472
508.610; 8506.493;   -7.856;10434.618
509.197;10280.402;  -10.097;11198.435
509.784;11824.118;  -10.886;12391.194
510.371;12779.908;   -9.315;13603.713
510.958;13555.882;   -9.936;14426.586
511.545;13643.592;   -9.326;15243.775
512.132;14631.676;  -10.075;15945.876
512.719;15707.783;   -7.796;16340.369
513.305;17583.434;  -10.606;18011.766
513.892;18738.531;  -11.486;19754.971
514.479;20179.053;   -9.126;20967.805
515.066;21291.385;   -6.026;22299.793
515.652;21399.434;   -8.466;22908.660
516.239;22658.326;  -10.886;23798.875
516.825;24914.912;  -11.496;25567.275
517.412;26188.484;   -5.796;28154.959
517.998;27077.246;  -10.506;28344.111
518.585;27426.330;  -10.076;27134.219
519.171;27137.689;   -8.315;27268.576
519.758;26612.500;   -8.596;28964.129
520.344;27432.871;   -8.466;30664.494
520.930;30775.113;  -11.006;32550.605
521.516;31856.387;  -10.495;35422.895
522.103;32282.303;   -5.526;38280.004
522.689;33863.254;   -8.746;37835.117
523.275;34893.883;  -11.376;37288.613
523.861;37121.320;  -11.156;37281.395
524.447;38997.543;   -8.135;37846.949
525.033;39091.238;   -7.896;38321.949
525.619;39908.426;  -12.476;38579.285
526.205;40292.680;   -9.516;40622.875
526.791;39374.145;   -6.926;42258.836
527.377;42756.051;   -8.346;42966.902
527.963;44600.930;   -8.717;42018.949
528.549;42320.375;  -11.016;42476.828
529.135;41198.602;   -8.536;41854.852
529.721;40821.258;   -9.666;41237.711
530.306;39768.809;  -10.066;41259.445
530.892;38841.141;  -11.356;41506.047
531.478;40082.145;   -6.596;43559.613
532.063;42131.500;   -8.836;47695.563
532.649;44761.660;  -10.047;50808.324
533.235;46301.641;   -9.746;51787.500
533.820;46802.191;   -6.566;52145.035
534.406;47509.098;  -10.817;51133.488
534.991;48992.402;   -9.416;49996.805
535.576;46481.102;   -9.036;48882.852
536.162;47486.430;   -6.156;46942.285
536.747;48412.086;  -11.607;45711.746
537.333;47828.781;  -11.787;48510.180
537.918;46694.301;  -12.437;50439.891
538.503;46433.207;   -7.196;50863.711
539.088;46856.520;  -10.556;50906.922
539.673;48501.160;   -8.767;52621.965
540.259;48424.473;  -10.026;52368.094
540.844;49189.301;   -7.416;50879.109
541.429;48402.250;   -9.467;52077.777
542.014;49512.688;   -9.527;52716.695
542.599;51556.035;   -9.946;52363.281
543.184;51163.313;   -7.927;53187.137
543.769;49972.734;   -9.297;54697.605
544.354;47547.742;  -10.127;53913.914
544.938;44766.508;   -9.267;49680.164
545.523;45267.262;   -6.506;47386.277
546.108;49191.090;   -9.787;49151.949
546.693;51252.270;  -11.587;51384.637
547.278;51708.957;  -10.986;51853.254
547.862;48507.984;   -8.206;51173.750
548.447;46120.480;  -10.067;51691.395
549.031;48648.828;   -9.637;52456.703
549.616;51704.801;   -9.926;52714.516
550.201;49568.543;   -6.347;52414.598
550.785;46258.035;   -7.917;52355.059
551.370;42407.895;  -10.867;54589.453
551.954;44913.148;   -9.047;58267.348
552.538;48207.012;   -7.827;59062.176
553.123;47029.516;  -10.287;58115.285
553.707;44802.141;  -12.178;56556.285
554.291;47015.043;   -8.717;56201.668
554.876;48751.145;   -7.457;55335.762
555.460;49934.914;  -10.387;54155.703
556.044;48833.148;   -9.618;53721.484
556.628;48780.086;  -11.567;53731.016
557.212;50136.609;   -8.097;54312.531
557.796;49156.578;  -11.077;53797.773
558.380;47218.711;  -11.108;56145.984
558.964;45016.402;   -9.057;57277.930
559.548;43673.109;   -6.977;56459.641
560.132;44387.930;  -11.457;54434.543
560.716;42476.387;  -11.378;54800.617
561.300;43468.207;   -9.577;57606.945
561.884;46257.793;   -7.127;58972.445
562.467;47219.230;   -7.118;57327.570
563.051;45984.898;  -13.358;54962.434
563.635;45514.566;  -10.178;52594.473
564.219;46729.207;   -7.837;50610.410
564.802;45941.762;  -11.398;49551.180
565.386;46911.395;  -12.788;48370.953
565.969;45754.352;   -9.077;48178.871
566.553;44807.867;   -6.207;49957.305
567.136;43014.754;   -8.568;50369.594
567.720;43204.602;  -11.868;49492.004
568.303;44683.633;   -8.268;50616.352
568.887;43445.086;   -8.698;50727.148
569.470;42518.234;   -6.808;51698.379
570.053;41237.551;  -13.188;52122.078
570.637;38916.098;  -12.037;52536.438
571.220;37854.387;   -8.577;51186.098
571.803;39050.691;   -8.498;51032.762
572.386;40068.207;  -10.498;49609.887
572.969;40284.789;   -9.388;48285.926
573.552;37567.988;   -8.338;47624.285
574.135;37242.535;   -8.518;45498.641
574.718;37925.766;  -13.628;41970.434
575.301;35844.750;  -10.893;41447.137
575.884;33763.730;   -8.158;40923.836
576.467;37060.082;  -10.328;45267.723
577.050;36408.402;  -13.058;48175.543
577.633;35665.262;   -9.458;47729.328
578.216;35595.391;   -8.928;47579.793
578.799;35253.145;   -9.358;47820.996
579.381;35246.879;  -11.388;48115.551
579.964;34408.770;  -11.718;47333.766
580.547;35462.797;   -8.588;46668.969
581.129;36989.293;   -8.859;44466.141
581.712;35501.234;  -10.729;44164.922
582.294;36139.168;  -11.118;46477.855
582.877;35209.117;   -5.218;48244.254
583.459;34632.891;   -8.679;47437.895
584.042;34539.180;  -10.709;46943.219
584.624;36874.891;  -11.669;46792.227
585.206;39296.055;   -8.218;46557.250
585.789;37152.137;  -10.569;45793.773
586.371;35075.641;  -11.859;43836.391
586.953;33422.832;  -10.719;42972.492
587.536;33332.105;   -7.198;42487.211
588.118;34991.438;   -8.720;42086.414
588.700;35631.660;  -10.439;43389.930
589.282;34920.301;   -9.198;43646.039
589.864;34976.508;   -9.199;43438.109
590.446;33783.801;  -11.319;43151.926
591.028;33140.938;  -11.159;42781.867
591.610;32018.221;  -11.779;42839.098
592.192;28827.844;   -7.668;42820.402
592.774;28944.469;  -11.949;40724.277
593.356;29791.590;  -12.129;39874.789
593.937;31258.219;  -10.669;39980.648
594.519;32482.818;   -6.509;42069.633
595.101;34827.887;  -10.849;42976.031
