
Integration time [ms]:   3.276
Averaging Nr. [scans]: 1000
Smoothing Nr. [pixels]: 0
Data measured with spectrometer [name]: 7414430SP
Wave   ;Sample   ;Dark     ;Reference
[nm]   ;[counts] ;[counts] ;[counts] 

288.544;  147.891;    7.793;  793.890
289.143;  151.750;    7.462;  681.602
289.742;  151.594;    8.602;  828.814
290.341;  136.712;    1.321;  789.841
290.940;  125.822;   -0.709;  730.702
291.538;  127.537;    0.881;  881.108
292.137;  128.269;    0.122;  792.581
292.736;  132.393;   -1.929;  975.101
293.335;  128.889;   -8.229;  735.086
293.934;  128.867;   -5.279;  781.677
294.532;  127.694;   -1.369; 1031.958
295.131;  113.823;   -7.641;  834.394
295.730;  113.672;   -8.420;  809.588
296.328;  113.222;   -5.611;  783.442
296.927;  114.423;   -5.781;  779.652
297.525;  115.393;   -6.361;  781.236
298.124;  104.551;  -11.382;  654.009
298.722;  108.074;   -7.641;  761.933
299.321;  106.564;   -6.811;  708.597
299.919;  105.935;   -6.991;  751.918
300.518;  102.664;  -10.362;  689.338
301.116;  103.865;   -9.581;  691.381
301.715;  102.731;   -4.891;  730.222
302.313;  102.071;   -8.801;  704.943
302.911;   98.261;   -8.522;  733.830
303.509;  103.270;   -6.171;  925.627
304.108;  100.049;   -7.311;  760.383
304.706;  100.090;   -8.321;  801.664
305.304;   94.625;  -10.222;  796.707
305.902;  100.476;   -6.021;  784.484
306.500;   96.387;   -4.971;  728.200
307.098;   94.428;   -7.061;  746.560
307.696;   92.380;   -8.801;  780.432
308.294;   93.561;   -6.411;  731.359
308.892;   95.086;   -2.901;  759.769
309.490;   91.105;   -5.041;  712.161
310.088;   88.807;   -5.002;  788.444
310.686;   94.180;   -2.041;  821.749
311.284;   89.166;   -2.351;  766.040
311.882;   86.582;   -4.422;  731.225
312.480;   83.860;   -4.192;  697.167
313.078;   85.882;   -1.172;  808.331
313.675;   86.449;   -2.601;  691.600
314.273;   81.876;   -1.312;  797.837
314.871;   80.392;   -3.942;  589.829
315.468;   78.982;   -2.802;  652.090
316.066;   81.618;   -0.701;  694.427
316.664;   75.032;   -4.362;  656.351
317.261;   78.272;   -2.872;  910.128
317.859;   74.123;   -2.022;  768.735
318.456;   75.252;   -0.531;  830.096
319.054;   70.404;   -3.912;  787.828
319.651;   69.688;   -4.752;  759.928
320.249;   68.690;   -2.602;  810.188
320.846;   66.313;   -0.821;  714.286
321.443;   64.073;   -4.642;  832.135
322.041;   60.400;   -5.002;  812.315
322.638;   58.548;   -3.982;  701.456
323.235;   60.326;   -3.411;  665.683
323.833;   57.616;   -7.361;  740.354
324.430;   52.951;   -8.611;  615.900
325.027;   53.511;   -4.061;  876.855
325.624;   54.192;   -4.031;  644.532
326.221;   50.891;   -7.481;  689.717
326.818;   51.008;   -5.281;  818.332
327.415;   53.407;   -7.460;  748.828
328.012;   53.439;   -5.510;  690.585
328.609;   51.732;   -7.880;  731.389
329.206;   50.064;   -8.331;  778.621
329.803;   50.263;   -5.121;  737.841
330.400;   53.180;   -4.510;  704.260
330.997;   55.458;   -6.441;  817.147
331.594;   52.927;   -8.831;  788.185
332.191;   58.472;   -7.621;  728.722
332.787;   61.943;   -4.591;  844.463
333.384;   59.620;   -7.412;  763.093
333.981;   57.639;   -8.293;  815.687
334.578;   60.398;   -7.052;  708.378
335.174;   63.180;   -3.102;  731.469
335.771;   62.511;   -5.943;  836.456
336.367;   58.764;   -7.393;  710.631
336.964;   62.969;   -4.063;  793.266
337.561;   60.743;   -3.813;  731.112
338.157;   56.253;   -4.654;  911.916
338.754;   53.929;   -7.934;  796.589
339.350;   52.731;   -4.414;  722.493
339.946;   55.561;   -4.664;  773.135
340.543;   47.512;   -6.375;  846.136
341.139;   41.573;   -9.815;  720.836
341.735;   39.489;   -4.526;  772.593
342.332;   38.782;   -4.895;  691.472
342.928;   38.337;   -4.295;  795.394
343.524;   33.667;   -5.476;  761.684
344.120;   30.241;   -5.856;  738.562
344.716;   32.506;   -2.155;  723.717
345.313;   30.197;   -6.275;  795.342
345.909;   25.568;   -8.815;  627.336
346.505;   28.478;   -5.305;  740.247
347.101;   27.948;   -2.674;  827.864
347.697;   28.538;   -4.344;  785.398
348.293;   23.041;   -9.975;  627.244
348.889;   24.207;   -5.774;  745.914
349.485;   23.739;   -5.004;  688.205
350.081;   24.048;   -4.704;  772.592
350.676;   19.265;   -6.635;  691.606
351.272;   23.596;   -4.504;  809.530
351.868;   23.575;   -3.914;  780.497
352.464;   20.519;   -9.044;  723.932
353.059;   16.743;   -8.314;  646.017
353.655;   20.474;   -7.024;  777.063
354.251;   20.845;   -5.343;  759.845
354.846;   16.883;   -8.604;  740.646
355.442;   14.048;   -6.945;  753.071
356.038;   15.669;   -7.564;  751.708
356.633;   15.700;   -5.814;  728.594
357.229;   13.659;   -7.364;  724.757
357.824;   11.735;   -8.024;  703.600
358.420;   11.124;   -9.384;  679.726
359.015;   12.074;   -5.104;  695.357
359.610;   12.932;   -6.854;  763.920
360.206;    7.437;  -10.185;  603.240
360.801;    9.572;   -7.054;  646.503
361.396;   12.503;   -5.034;  725.975
361.992;    8.193;   -8.284;  668.220
362.587;    4.918;   -8.625;  670.160
363.182;    7.279;   -7.674;  689.631
363.777;    7.769;   -5.164;  738.242
364.372;    7.965;   -8.604;  737.314
364.967;    3.447;   -9.055;  680.744
365.563;    8.359;   -6.114;  815.567
366.158;    5.738;   -5.814;  685.161
366.753;    5.477;   -7.854;  649.263
367.348;    4.011;   -7.804;  746.056
367.942;    3.609;   -7.954;  697.298
368.537;    3.400;   -4.984;  754.245
369.132;    3.077;   -8.564;  703.428
369.727;   -0.408;   -8.855;  638.079
370.322;    0.903;   -6.245;  580.186
370.917;    0.596;   -6.425;  710.646
371.511;    4.156;   -6.294;  861.834
372.106;   -0.707;   -7.685;  776.964
372.701;   -3.134;   -7.335;  585.988
373.296;    1.747;   -4.564;  863.135
373.890;   -2.159;  -10.235;  647.840
374.485;   -4.529;   -7.885;  691.199
375.079;   -0.881;   -7.324;  738.685
375.674;    0.181;   -3.494;  812.970
376.268;   -3.419;   -8.525;  691.759
376.863;   -9.713;  -10.086;  580.327
377.457;   -3.557;   -7.025;  662.490
378.052;   -4.970;   -3.585;  764.884
378.646;   -5.198;   -7.595;  741.167
379.240;   -5.684;   -8.335;  721.176
379.835;   -4.895;   -5.785;  636.978
380.429;   -6.750;   -4.335;  562.557
381.023;   -6.458;   -6.805;  779.205
381.617;   -8.625;   -9.195;  680.106
382.212;   -6.035;   -6.905;  685.303
382.806;   -4.146;   -3.745;  760.690
383.400;   -9.092;   -7.745;  672.281
383.994;  -10.075;   -9.765;  664.870
384.588;   -6.210;   -6.564;  697.701
385.182;   -5.553;   -5.344;  726.624
385.776;   -6.503;   -8.514;  706.875
386.370;   -9.538;   -9.555;  681.968
386.964;   -8.207;   -8.715;  684.155
387.558;   -6.268;   -6.174;  598.360
388.152;  -10.100;   -8.725;  681.959
388.745;   -8.463;   -7.965;  814.707
389.339;   -6.391;   -5.924;  747.642
389.933;   -5.518;   -5.524;  695.370
390.527;   -6.766;   -7.114;  859.029
391.120;  -13.430;  -10.725;  595.318
391.714;   -9.951;   -8.035;  711.633
392.308;   -7.297;   -3.574;  780.253
392.901;  -10.922;   -7.245;  642.460
393.495;  -11.992;   -9.285;  595.414
394.089;  -10.126;   -5.895;  760.452
394.682;  -10.582;   -4.295;  697.188
395.275;  -11.780;   -9.875;  719.927
395.869;  -12.538;   -8.485;  667.314
396.462;  -10.989;   -7.455;  616.609
397.056;   -6.829;   -5.424;  776.621
397.649;  -11.612;   -6.605;  731.575
398.242;   -9.205;   -8.224;  712.645
398.836;   -9.208;   -7.474;  766.408
399.429;   -8.902;   -7.094;  631.041
400.022;  -12.402;   -9.475;  665.902
400.615;   -9.653;   -7.145;  805.609
401.208;   -7.992;   -7.174;  691.451
401.802;  -10.937;   -5.515;  699.329
402.395;  -11.433;   -9.875;  683.502
402.988;  -12.888;   -8.845;  696.627
403.581;   -8.779;   -8.874;  646.878
404.174;   -6.983;   -5.324;  686.568
404.767;  -10.156;   -9.575;  638.583
405.360;  -12.706;  -10.965;  621.445
405.953;   -7.101;   -8.764;  759.034
406.545;   -6.185;   -7.514;  725.342
407.138;  -10.297;  -10.025;  618.350
407.731;   -9.931;  -10.034;  613.303
408.324;   -5.403;   -9.374;  660.554
408.917;   -6.563;   -6.534;  681.864
409.509;   -8.268;   -8.004;  740.396
410.102;   -9.391;   -9.875;  643.948
410.695;   -4.003;   -8.604;  665.758
411.287;   -4.595;   -6.794;  599.821
411.880;   -6.463;   -9.334;  585.421
412.472;   -9.186;  -10.254;  613.092
413.065;   -6.976;   -6.714;  629.408
413.657;   -5.194;   -7.234;  576.678
414.250;   -4.793;  -10.544;  646.681
414.842;   -6.070;   -9.744;  676.353
415.434;   -3.763;   -6.994;  570.463
416.027;    0.167;   -5.893;  652.196
416.619;   -0.938;   -7.264;  713.400
417.211;   -2.546;  -10.374;  599.352
417.804;    0.921;   -7.993;  628.499
418.396;   -2.320;   -7.234;  607.643
418.988;   -0.488;   -9.443;  659.238
419.580;   -3.696;  -10.724;  568.276
420.172;   -1.767;  -10.323;  536.196
420.764;    2.722;   -8.793;  672.482
421.356;    1.259;  -11.143;  636.898
421.948;    0.461;   -8.293;  677.661
422.540;    5.533;   -7.893;  680.027
423.132;    5.121;   -7.082;  600.641
423.724;    1.698;   -8.653;  561.267
424.316;    3.409;  -10.213;  621.345
424.908;    6.843;   -9.762;  591.517
425.500;    8.075;   -5.572;  647.978
426.092;    8.477;   -8.422;  648.268
426.683;    7.000;   -9.283;  684.836
427.275;    9.090;   -7.852;  641.471
427.867;   11.483;   -5.272;  668.948
428.458;   11.997;   -7.682;  732.344
429.050;   10.485;  -10.612;  680.749
429.642;   12.887;   -9.882;  743.124
430.233;   12.903;   -6.962;  569.356
430.825;   14.654;   -6.842;  724.809
431.416;   11.674;   -9.672;  698.241
432.008;   15.284;   -6.552;  651.723
432.599;   16.206;   -6.891;  656.073
433.190;   13.294;  -10.912;  637.670
433.782;   12.490;  -11.172;  590.395
434.373;   20.472;   -6.061;  884.765
434.964;   18.884;   -8.251;  602.920
435.556;   16.404;   -9.722;  634.537
436.147;   19.511;   -9.082;  758.490
436.738;   19.151;   -8.041;  701.099
437.329;   24.076;   -7.341;  721.723
437.920;   17.988;   -8.162;  666.688
438.511;   16.885;  -11.802;  564.526
439.103;   23.948;  -10.191;  623.998
439.694;   26.133;   -7.601;  681.583
440.285;   26.620;   -8.541;  764.432
440.876;   24.746;   -9.751;  845.738
441.466;   24.562;   -9.401;  575.162
442.057;   29.447;   -7.760;  665.814
442.648;   28.589;   -9.971;  746.255
443.239;   26.349;  -11.001;  620.477
443.830;   31.953;   -7.990;  704.958
444.421;   33.962;   -7.910;  655.474
445.011;   30.077;   -8.131;  693.619
445.602;   29.214;   -7.111;  743.126
446.193;   31.708;  -10.920;  488.117
446.783;   36.606;   -6.500;  640.397
447.374;   32.258;   -8.671;  692.759
447.964;   31.906;  -10.781;  713.770
448.555;   40.876;   -9.650;  822.742
449.145;   36.561;   -8.660;  662.853
449.736;   37.794;   -8.990;  803.179
450.326;   37.700;   -9.500;  713.626
450.917;   42.993;   -8.680;  675.324
451.507;   41.911;   -7.520;  600.661
452.097;   42.612;   -8.590;  746.267
452.688;   43.921;  -11.340;  742.160
453.278;   43.663;  -10.100;  566.840
453.868;   48.132;   -6.019;  793.550
454.458;   45.900;   -9.440;  651.141
455.048;   46.630;  -10.560;  711.783
455.639;   48.316;  -11.799;  567.096
456.229;   51.290;   -6.899;  710.694
456.819;   53.517;   -7.389;  751.158
457.409;   53.019;  -11.119;  773.993
457.999;   55.791;   -9.289;  737.505
458.589;   56.976;   -6.139;  686.606
459.179;   56.277;   -8.729;  717.658
459.769;   54.345;   -9.789;  627.099
460.358;   58.976;  -10.259;  797.262
460.948;   59.187;   -7.299;  689.503
461.538;   60.422;  -10.289;  660.677
462.128;   58.673;  -11.269;  664.934
462.717;   65.314;   -9.368;  710.326
463.307;   68.547;   -7.908;  705.846
463.897;   64.532;   -9.599;  656.942
464.486;   63.627;   -9.769;  837.128
465.076;   67.875;   -8.048;  733.776
465.666;   71.307;   -9.358;  652.900
466.255;   69.265;   -7.919;  785.651
466.845;   68.665;  -11.689;  666.749
467.434;   72.888;   -7.818;  725.873
468.023;   73.031;   -7.678;  658.357
468.613;   71.291;  -10.939;  713.946
469.202;   74.178;  -10.118;  646.507
469.791;   79.143;   -9.108;  737.811
470.381;   81.188;   -6.058;  742.813
470.970;   80.899;  -10.428;  711.099
471.559;   80.086;  -10.268;  733.291
472.148;   83.697;   -8.448;  675.737
472.738;   85.510;   -6.917;  765.466
473.327;   85.657;  -11.978;  637.529
473.916;   84.975;  -11.888;  737.446
474.505;   90.322;   -9.437;  751.703
475.094;   92.882;   -6.747;  806.570
475.683;   91.839;   -9.367;  797.699
476.272;   93.104;  -12.637;  730.632
476.861;   96.094;  -10.027;  706.754
477.449;  102.651;   -8.716;  728.487
478.038;   97.459;   -9.577;  692.513
478.627;   98.658;   -9.718;  714.852
479.216;  105.118;   -8.947;  769.441
479.805;  108.225;   -6.256;  783.375
480.393;  107.614;   -7.937; 1008.945
480.982;  106.790;   -7.717;  874.501
481.571;  113.373;   -9.266;  858.333
482.159;  114.137;   -7.636;  705.386
482.748;  114.311;   -9.667;  821.385
483.336;  118.428;  -10.376;  858.209
483.925;  119.714;   -7.147;  774.373
484.513;  127.192;   -7.996;  758.962
485.102;  124.035;  -10.027;  810.965
485.690;  132.374;  -10.446; 1011.050
486.278;  134.399;   -8.446;  979.329
486.867;  135.606;   -6.356;  809.662
487.455;  138.118;   -9.136;  898.229
488.043;  140.207;  -10.646;  748.361
488.631;  149.462;   -7.456; 1005.079
489.220;  153.892;   -6.636;  908.626
489.808;  155.105;  -11.036;  741.415
490.396;  163.233;  -10.246;  914.645
490.984;  171.315;   -8.556;  830.161
491.572;  184.364;   -5.886;  940.315
492.160;  192.250;   -9.486;  919.081
492.748;  208.219;  -10.976;  884.341
493.336;  237.036;   -8.776; 1019.693
493.924;  271.295;   -5.465;  958.077
494.512;  311.914;   -9.986; 1066.638
495.100;  367.111;  -10.636; 1103.280
495.687;  436.806;  -10.885; 1206.373
496.275;  511.379;   -8.126; 1150.796
496.863;  586.632;  -10.586; 1281.171
497.451;  703.876;  -11.926; 1386.805
498.038;  880.382;  -10.885; 1556.729
498.626; 1044.869;   -6.315; 1741.407
499.214; 1214.730;   -7.326; 2016.609
499.801; 1472.481;  -11.906; 2220.633
500.389; 1773.563;  -10.466; 2312.494
500.976; 2193.720;   -5.236; 2744.849
501.564; 2710.497;   -8.936; 3148.565
502.151; 3221.121;  -13.176; 3515.999
502.738; 3817.945;  -10.646; 3971.274
503.326; 4260.887;   -9.525; 4403.796
503.913; 4842.508;  -10.856; 5161.749
504.500; 5158.610;  -11.586; 5986.420
505.088; 5593.594;  -10.336; 6381.201
505.675; 6233.072;   -6.355; 6925.547
506.262; 6852.568;   -9.046; 7619.060
506.849; 7700.741;  -10.416; 8733.969
507.436; 8200.446;  -10.305; 9790.121
508.023; 8415.023;   -5.496; 9985.472
508.610; 8974.533;   -7.856;10434.618
509.197; 9887.437;  -10.097;11198.435
509.784;11573.205;  -10.886;12391.194
510.371;13290.054;   -9.315;13603.713
510.958;14261.028;   -9.936;14426.586
511.545;14815.368;   -9.326;15243.775
512.132;15410.531;  -10.075;15945.876
512.719;15964.970;   -7.796;16340.369
513.305;17475.680;  -10.606;18011.766
513.892;18572.963;  -11.486;19754.971
514.479;19623.725;   -9.126;20967.805
515.066;20333.119;   -6.026;22299.793
515.652;21241.832;   -8.466;22908.660
516.239;22663.236;  -10.886;23798.875
516.825;22890.971;  -11.496;25567.275
517.412;23795.008;   -5.796;28154.959
517.998;25423.615;  -10.506;28344.111
518.585;26333.613;  -10.076;27134.219
519.171;26070.607;   -8.315;27268.576
519.758;27508.174;   -8.596;28964.129
520.344;28432.766;   -8.466;30664.494
520.930;28806.982;  -11.006;32550.605
521.516;29812.793;  -10.495;35422.895
522.103;33017.883;   -5.526;38280.004
522.689;35008.113;   -8.746;37835.117
523.275;34396.477;  -11.376;37288.613
523.861;33477.590;  -11.156;37281.395
524.447;35398.098;   -8.135;37846.949
525.033;34851.723;   -7.896;38321.949
525.619;35119.609;  -12.476;38579.285
526.205;36829.547;   -9.516;40622.875
526.791;40224.262;   -6.926;42258.836
527.377;41054.922;   -8.346;42966.902
527.963;42677.363;   -8.717;42018.949
528.549;41114.422;  -11.016;42476.828
529.135;38058.313;   -8.536;41854.852
529.721;37361.703;   -9.666;41237.711
530.306;36899.625;  -10.066;41259.445
530.892;37606.816;  -11.356;41506.047
531.478;38823.113;   -6.596;43559.613
532.063;39607.945;   -8.836;47695.563
532.649;40131.699;  -10.047;50808.324
533.235;44136.766;   -9.746;51787.500
533.820;45850.176;   -6.566;52145.035
534.406;44931.621;  -10.817;51133.488
534.991;44315.453;   -9.416;49996.805
535.576;42973.574;   -9.036;48882.852
536.162;43437.152;   -6.156;46942.285
536.747;44368.063;  -11.607;45711.746
537.333;46864.336;  -11.787;48510.180
537.918;47395.215;  -12.437;50439.891
538.503;45494.344;   -7.196;50863.711
539.088;43586.723;  -10.556;50906.922
539.673;46609.633;   -8.767;52621.965
540.259;47318.785;  -10.026;52368.094
540.844;43870.328;   -7.416;50879.109
541.429;42373.375;   -9.467;52077.777
542.014;46918.617;   -9.527;52716.695
542.599;48414.254;   -9.946;52363.281
543.184;45377.582;   -7.927;53187.137
543.769;46406.504;   -9.297;54697.605
544.354;45908.730;  -10.127;53913.914
544.938;45506.863;   -9.267;49680.164
545.523;46810.816;   -6.506;47386.277
546.108;47701.836;   -9.787;49151.949
546.693;49375.047;  -11.587;51384.637
547.278;49757.891;  -10.986;51853.254
547.862;45139.590;   -8.206;51173.750
548.447;41533.941;  -10.067;51691.395
549.031;41701.852;   -9.637;52456.703
549.616;45929.211;   -9.926;52714.516
550.201;45504.082;   -6.347;52414.598
550.785;43836.188;   -7.917;52355.059
551.370;44159.109;  -10.867;54589.453
551.954;46436.680;   -9.047;58267.348
552.538;48092.805;   -7.827;59062.176
553.123;47294.988;  -10.287;58115.285
553.707;45458.855;  -12.178;56556.285
554.291;45999.012;   -8.717;56201.668
554.876;43834.578;   -7.457;55335.762
555.460;44688.453;  -10.387;54155.703
556.044;47413.902;   -9.618;53721.484
556.628;45160.504;  -11.567;53731.016
557.212;45842.449;   -8.097;54312.531
557.796;44598.512;  -11.077;53797.773
558.380;44008.121;  -11.108;56145.984
558.964;43581.348;   -9.057;57277.930
559.548;43632.813;   -6.977;56459.641
560.132;42807.969;  -11.457;54434.543
560.716;42060.996;  -11.378;54800.617
561.300;41192.305;   -9.577;57606.945
561.884;41627.480;   -7.127;58972.445
562.467;41483.859;   -7.118;57327.570
563.051;42055.055;  -13.358;54962.434
563.635;43511.402;  -10.178;52594.473
564.219;45273.910;   -7.837;50610.410
564.802;45814.473;  -11.398;49551.180
565.386;45344.500;  -12.788;48370.953
565.969;44223.598;   -9.077;48178.871
566.553;45120.566;   -6.207;49957.305
567.136;44623.191;   -8.568;50369.594
567.720;40550.313;  -11.868;49492.004
568.303;39195.500;   -8.268;50616.352
568.887;38522.164;   -8.698;50727.148
569.470;38842.629;   -6.808;51698.379
570.053;37052.684;  -13.188;52122.078
570.637;36264.129;  -12.037;52536.438
571.220;36341.961;   -8.577;51186.098
571.803;36949.191;   -8.498;51032.762
572.386;39441.848;  -10.498;49609.887
572.969;42245.602;   -9.388;48285.926
573.552;40691.262;   -8.338;47624.285
574.135;39494.434;   -8.518;45498.641
574.718;36096.633;  -13.628;41970.434
575.301;35170.688;  -10.893;41447.137
575.884;34244.746;   -8.158;40923.836
576.467;35095.449;  -10.328;45267.723
577.050;37956.250;  -13.058;48175.543
577.633;39025.203;   -9.458;47729.328
578.216;37879.801;   -8.928;47579.793
578.799;36942.332;   -9.358;47820.996
579.381;35882.316;  -11.388;48115.551
579.964;34575.254;  -11.718;47333.766
580.547;35001.355;   -8.588;46668.969
581.129;34921.172;   -8.859;44466.141
581.712;34078.617;  -10.729;44164.922
582.294;35117.535;  -11.118;46477.855
582.877;37032.656;   -5.218;48244.254
583.459;36365.203;   -8.679;47437.895
584.042;35588.922;  -10.709;46943.219
584.624;34679.793;  -11.669;46792.227
585.206;33125.758;   -8.218;46557.250
585.789;34206.629;  -10.569;45793.773
586.371;37128.461;  -11.859;43836.391
586.953;37732.316;  -10.719;42972.492
587.536;37967.613;   -7.198;42487.211
588.118;36899.793;   -8.720;42086.414
588.700;35019.305;  -10.439;43389.930
589.282;34362.391;   -9.198;43646.039
589.864;34429.078;   -9.199;43438.109
590.446;34667.527;  -11.319;43151.926
591.028;33718.207;  -11.159;42781.867
591.610;32553.488;  -11.779;42839.098
592.192;30154.928;   -7.668;42820.402
592.774;29994.182;  -11.949;40724.277
593.356;30212.047;  -12.129;39874.789
593.937;31456.535;  -10.669;39980.648
594.519;33562.633;   -6.509;42069.633
595.101;34591.926;  -10.849;42976.031
