
Integration time [ms]:   3.276
Averaging Nr. [scans]: 1000
Smoothing Nr. [pixels]: 0
Data measured with spectrometer [name]: 7414430SP
Wave   ;Sample   ;Dark     ;Reference
[nm]   ;[counts] ;[counts] ;[counts] 

288.544;  150.192;    7.793;  793.890
289.143;  153.447;    7.462;  681.602
289.742;  154.048;    8.602;  828.814
290.341;  139.548;    1.321;  789.841
290.940;  128.490;   -0.709;  730.702
291.538;  129.547;    0.881;  881.108
292.137;  129.481;    0.122;  792.581
292.736;  134.637;   -1.929;  975.101
293.335;  130.757;   -8.229;  735.086
293.934;  131.224;   -5.279;  781.677
294.532;  130.332;   -1.369; 1031.958
295.131;  115.350;   -7.641;  834.394
295.730;  115.504;   -8.420;  809.588
296.328;  114.559;   -5.611;  783.442
296.927;  114.709;   -5.781;  779.652
297.525;  117.243;   -6.361;  781.236
298.124;  106.636;  -11.382;  654.009
298.722;  110.468;   -7.641;  761.933
299.321;  108.841;   -6.811;  708.597
299.919;  106.859;   -6.991;  751.918
300.518;  103.247;  -10.362;  689.338
301.116;  104.339;   -9.581;  691.381
301.715;  105.292;   -4.891;  730.222
302.313;  104.004;   -8.801;  704.943
302.911;   98.985;   -8.522;  733.830
303.509;  104.537;   -6.171;  925.627
304.108;  101.930;   -7.311;  760.383
304.706;  102.207;   -8.321;  801.664
305.304;   95.861;  -10.222;  796.707
305.902;  101.293;   -6.021;  784.484
306.500;   96.933;   -4.971;  728.200
307.098;   96.033;   -7.061;  746.560
307.696;   93.928;   -8.801;  780.432
308.294;   93.512;   -6.411;  731.359
308.892;   95.419;   -2.901;  759.769
309.490;   92.223;   -5.041;  712.161
310.088;   90.870;   -5.002;  788.444
310.686;   93.946;   -2.041;  821.749
311.284;   90.919;   -2.351;  766.040
311.882;   88.645;   -4.422;  731.225
312.480;   85.624;   -4.192;  697.167
313.078;   86.193;   -1.172;  808.331
313.675;   88.098;   -2.601;  691.600
314.273;   82.650;   -1.312;  797.837
314.871;   81.568;   -3.942;  589.829
315.468;   79.035;   -2.802;  652.090
316.066;   81.846;   -0.701;  694.427
316.664;   75.596;   -4.362;  656.351
317.261;   80.157;   -2.872;  910.128
317.859;   75.146;   -2.022;  768.735
318.456;   75.422;   -0.531;  830.096
319.054;   71.408;   -3.912;  787.828
319.651;   70.529;   -4.752;  759.928
320.249;   69.753;   -2.602;  810.188
320.846;   67.519;   -0.821;  714.286
321.443;   64.692;   -4.642;  832.135
322.041;   61.050;   -5.002;  812.315
322.638;   59.440;   -3.982;  701.456
323.235;   60.261;   -3.411;  665.683
323.833;   58.296;   -7.361;  740.354
324.430;   53.038;   -8.611;  615.900
325.027;   54.042;   -4.061;  876.855
325.624;   53.317;   -4.031;  644.532
326.221;   51.954;   -7.481;  689.717
326.818;   50.524;   -5.281;  818.332
327.415;   53.925;   -7.460;  748.828
328.012;   52.812;   -5.510;  690.585
328.609;   51.800;   -7.880;  731.389
329.206;   49.155;   -8.331;  778.621
329.803;   49.764;   -5.121;  737.841
330.400;   52.891;   -4.510;  704.260
330.997;   54.565;   -6.441;  817.147
331.594;   52.461;   -8.831;  788.185
332.191;   57.101;   -7.621;  728.722
332.787;   60.098;   -4.591;  844.463
333.384;   59.146;   -7.412;  763.093
333.981;   57.731;   -8.293;  815.687
334.578;   60.724;   -7.052;  708.378
335.174;   63.361;   -3.102;  731.469
335.771;   63.772;   -5.943;  836.456
336.367;   59.614;   -7.393;  710.631
336.964;   63.777;   -4.063;  793.266
337.561;   62.331;   -3.813;  731.112
338.157;   58.026;   -4.654;  911.916
338.754;   54.239;   -7.934;  796.589
339.350;   53.680;   -4.414;  722.493
339.946;   55.623;   -4.664;  773.135
340.543;   47.611;   -6.375;  846.136
341.139;   41.412;   -9.815;  720.836
341.735;   40.004;   -4.526;  772.593
342.332;   37.703;   -4.895;  691.472
342.928;   38.627;   -4.295;  795.394
343.524;   32.770;   -5.476;  761.684
344.120;   29.146;   -5.856;  738.562
344.716;   31.909;   -2.155;  723.717
345.313;   29.935;   -6.275;  795.342
345.909;   24.568;   -8.815;  627.336
346.505;   26.582;   -5.305;  740.247
347.101;   26.751;   -2.674;  827.864
347.697;   27.460;   -4.344;  785.398
348.293;   21.524;   -9.975;  627.244
348.889;   22.487;   -5.774;  745.914
349.485;   22.039;   -5.004;  688.205
350.081;   23.273;   -4.704;  772.592
350.676;   18.647;   -6.635;  691.606
351.272;   22.087;   -4.504;  809.530
351.868;   22.115;   -3.914;  780.497
352.464;   19.947;   -9.044;  723.932
353.059;   15.714;   -8.314;  646.017
353.655;   18.260;   -7.024;  777.063
354.251;   19.845;   -5.343;  759.845
354.846;   14.433;   -8.604;  740.646
355.442;   12.623;   -6.945;  753.071
356.038;   14.255;   -7.564;  751.708
356.633;   14.498;   -5.814;  728.594
357.229;   12.041;   -7.364;  724.757
357.824;   10.048;   -8.024;  703.600
358.420;    9.751;   -9.384;  679.726
359.015;   10.125;   -5.104;  695.357
359.610;   11.431;   -6.854;  763.920
360.206;    5.236;  -10.185;  603.240
360.801;    8.046;   -7.054;  646.503
361.396;   10.231;   -5.034;  725.975
361.992;    6.274;   -8.284;  668.220
362.587;    3.170;   -8.625;  670.160
363.182;    4.973;   -7.674;  689.631
363.777;    5.681;   -5.164;  738.242
364.372;    5.979;   -8.604;  737.314
364.967;    1.017;   -9.055;  680.744
365.563;    5.745;   -6.114;  815.567
366.158;    3.311;   -5.814;  685.161
366.753;    3.384;   -7.854;  649.263
367.348;    1.354;   -7.804;  746.056
367.942;    0.836;   -7.954;  697.298
368.537;    0.681;   -4.984;  754.245
369.132;    0.658;   -8.564;  703.428
369.727;   -3.043;   -8.855;  638.079
370.322;   -1.574;   -6.245;  580.186
370.917;   -2.297;   -6.425;  710.646
371.511;    0.311;   -6.294;  861.834
372.106;   -3.069;   -7.685;  776.964
372.701;   -5.478;   -7.335;  585.988
373.296;    0.049;   -4.564;  863.135
373.890;   -4.999;  -10.235;  647.840
374.485;   -8.168;   -7.885;  691.199
375.079;   -3.470;   -7.324;  738.685
375.674;   -2.345;   -3.494;  812.970
376.268;   -6.857;   -8.525;  691.759
376.863;  -12.897;  -10.086;  580.327
377.457;   -6.142;   -7.025;  662.490
378.052;   -7.606;   -3.585;  764.884
378.646;   -8.773;   -7.595;  741.167
379.240;   -9.322;   -8.335;  721.176
379.835;   -8.569;   -5.785;  636.978
380.429;   -9.380;   -4.335;  562.557
381.023;   -9.973;   -6.805;  779.205
381.617;  -12.266;   -9.195;  680.106
382.212;   -9.297;   -6.905;  685.303
382.806;   -8.328;   -3.745;  760.690
383.400;  -12.166;   -7.745;  672.281
383.994;  -14.045;   -9.765;  664.870
384.588;   -9.849;   -6.564;  697.701
385.182;   -7.790;   -5.344;  726.624
385.776;   -9.956;   -8.514;  706.875
386.370;  -12.647;   -9.555;  681.968
386.964;  -12.093;   -8.715;  684.155
387.558;  -10.281;   -6.174;  598.360
388.152;  -13.799;   -8.725;  681.959
388.745;  -11.658;   -7.965;  814.707
389.339;  -10.912;   -5.924;  747.642
389.933;   -8.760;   -5.524;  695.370
390.527;  -10.170;   -7.114;  859.029
391.120;  -16.361;  -10.725;  595.318
391.714;  -13.747;   -8.035;  711.633
392.308;  -10.774;   -3.574;  780.253
392.901;  -14.265;   -7.245;  642.460
393.495;  -16.562;   -9.285;  595.414
394.089;  -14.094;   -5.895;  760.452
394.682;  -14.879;   -4.295;  697.188
395.275;  -14.322;   -9.875;  719.927
395.869;  -16.635;   -8.485;  667.314
396.462;  -14.793;   -7.455;  616.609
397.056;  -10.322;   -5.424;  776.621
397.649;  -15.164;   -6.605;  731.575
398.242;  -13.483;   -8.224;  712.645
398.836;  -12.236;   -7.474;  766.408
399.429;  -13.008;   -7.094;  631.041
400.022;  -16.850;   -9.475;  665.902
400.615;  -14.500;   -7.145;  805.609
401.208;  -12.712;   -7.174;  691.451
401.802;  -14.516;   -5.515;  699.329
402.395;  -15.752;   -9.875;  683.502
402.988;  -16.978;   -8.845;  696.627
403.581;  -13.603;   -8.874;  646.878
404.174;  -11.219;   -5.324;  686.568
404.767;  -13.974;   -9.575;  638.583
405.360;  -16.770;  -10.965;  621.445
405.953;  -11.807;   -8.764;  759.034
406.545;  -10.938;   -7.514;  725.342
407.138;  -14.697;  -10.025;  618.350
407.731;  -14.452;  -10.034;  613.303
408.324;  -10.034;   -9.374;  660.554
408.917;  -10.500;   -6.534;  681.864
409.509;  -12.844;   -8.004;  740.396
410.102;  -14.747;   -9.875;  643.948
410.695;   -8.741;   -8.604;  665.758
411.287;   -9.347;   -6.794;  599.821
411.880;  -11.326;   -9.334;  585.421
412.472;  -13.797;  -10.254;  613.092
413.065;  -11.517;   -6.714;  629.408
413.657;   -8.308;   -7.234;  576.678
414.250;   -9.359;  -10.544;  646.681
414.842;  -10.416;   -9.744;  676.353
415.434;   -8.397;   -6.994;  570.463
416.027;   -4.471;   -5.893;  652.196
416.619;   -7.009;   -7.264;  713.400
417.211;   -7.409;  -10.374;  599.352
417.804;   -3.386;   -7.993;  628.499
418.396;   -7.380;   -7.234;  607.643
418.988;   -4.579;   -9.443;  659.238
419.580;   -8.232;  -10.724;  568.276
420.172;   -6.060;  -10.323;  536.196
420.764;   -1.964;   -8.793;  672.482
421.356;   -2.663;  -11.143;  636.898
421.948;   -3.921;   -8.293;  677.661
422.540;    1.175;   -7.893;  680.027
423.132;   -0.161;   -7.082;  600.641
423.724;   -2.849;   -8.653;  561.267
424.316;   -0.389;  -10.213;  621.345
424.908;    2.297;   -9.762;  591.517
425.500;    2.748;   -5.572;  647.978
426.092;    3.521;   -8.422;  648.268
426.683;    2.824;   -9.283;  684.836
427.275;    5.176;   -7.852;  641.471
427.867;    7.292;   -5.272;  668.948
428.458;    7.124;   -7.682;  732.344
429.050;    5.388;  -10.612;  680.749
429.642;    7.745;   -9.882;  743.124
430.233;    7.936;   -6.962;  569.356
430.825;    9.568;   -6.842;  724.809
431.416;    6.521;   -9.672;  698.241
432.008;   10.927;   -6.552;  651.723
432.599;   11.735;   -6.891;  656.073
433.190;    8.471;  -10.912;  637.670
433.782;    7.446;  -11.172;  590.395
434.373;   14.847;   -6.061;  884.765
434.964;   13.215;   -8.251;  602.920
435.556;   11.172;   -9.722;  634.537
436.147;   14.050;   -9.082;  758.490
436.738;   13.893;   -8.041;  701.099
437.329;   19.335;   -7.341;  721.723
437.920;   12.258;   -8.162;  666.688
438.511;   12.344;  -11.802;  564.526
439.103;   17.873;  -10.191;  623.998
439.694;   21.141;   -7.601;  681.583
440.285;   20.768;   -8.541;  764.432
440.876;   19.187;   -9.751;  845.738
441.466;   18.191;   -9.401;  575.162
442.057;   24.544;   -7.760;  665.814
442.648;   23.758;   -9.971;  746.255
443.239;   21.362;  -11.001;  620.477
443.830;   25.893;   -7.990;  704.958
444.421;   27.917;   -7.910;  655.474
445.011;   24.022;   -8.131;  693.619
445.602;   24.098;   -7.111;  743.126
446.193;   26.428;  -10.920;  488.117
446.783;   30.657;   -6.500;  640.397
447.374;   26.521;   -8.671;  692.759
447.964;   26.062;  -10.781;  713.770
448.555;   34.526;   -9.650;  822.742
449.145;   31.874;   -8.660;  662.853
449.736;   32.286;   -8.990;  803.179
450.326;   31.999;   -9.500;  713.626
450.917;   36.698;   -8.680;  675.324
451.507;   36.043;   -7.520;  600.661
452.097;   37.449;   -8.590;  746.267
452.688;   37.491;  -11.340;  742.160
453.278;   36.614;  -10.100;  566.840
453.868;   42.303;   -6.019;  793.550
454.458;   40.201;   -9.440;  651.141
455.048;   40.397;  -10.560;  711.783
455.639;   41.991;  -11.799;  567.096
456.229;   45.345;   -6.899;  710.694
456.819;   47.725;   -7.389;  751.158
457.409;   47.104;  -11.119;  773.993
457.999;   49.969;   -9.289;  737.505
458.589;   50.097;   -6.139;  686.606
459.179;   50.040;   -8.729;  717.658
459.769;   48.446;   -9.789;  627.099
460.358;   52.650;  -10.259;  797.262
460.948;   52.164;   -7.299;  689.503
461.538;   54.324;  -10.289;  660.677
462.128;   52.230;  -11.269;  664.934
462.717;   58.534;   -9.368;  710.326
463.307;   62.006;   -7.908;  705.846
463.897;   58.280;   -9.599;  656.942
464.486;   56.676;   -9.769;  837.128
465.076;   60.643;   -8.048;  733.776
465.666;   64.605;   -9.358;  652.900
466.255;   62.835;   -7.919;  785.651
466.845;   62.343;  -11.689;  666.749
467.434;   64.939;   -7.818;  725.873
468.023;   65.776;   -7.678;  658.357
468.613;   63.949;  -10.939;  713.946
469.202;   67.898;  -10.118;  646.507
469.791;   71.465;   -9.108;  737.811
470.381;   73.701;   -6.058;  742.813
470.970;   73.796;  -10.428;  711.099
471.559;   72.861;  -10.268;  733.291
472.148;   75.554;   -8.448;  675.737
472.738;   78.496;   -6.917;  765.466
473.327;   78.853;  -11.978;  637.529
473.916;   77.404;  -11.888;  737.446
474.505;   81.321;   -9.437;  751.703
475.094;   84.957;   -6.747;  806.570
475.683;   85.092;   -9.367;  797.699
476.272;   86.166;  -12.637;  730.632
476.861;   88.721;  -10.027;  706.754
477.449;   95.028;   -8.716;  728.487
478.038;   90.053;   -9.577;  692.513
478.627;   90.295;   -9.718;  714.852
479.216;   96.728;   -8.947;  769.441
479.805;   99.565;   -6.256;  783.375
480.393;   99.447;   -7.937; 1008.945
480.982;   98.339;   -7.717;  874.501
481.571;  105.122;   -9.266;  858.333
482.159;  105.428;   -7.636;  705.386
482.748;  105.270;   -9.667;  821.385
483.336;  109.098;  -10.376;  858.209
483.925;  110.461;   -7.147;  774.373
484.513;  117.163;   -7.996;  758.962
485.102;  113.803;  -10.027;  810.965
485.690;  121.944;  -10.446; 1011.050
486.278;  124.227;   -8.446;  979.329
486.867;  124.817;   -6.356;  809.662
487.455;  126.589;   -9.136;  898.229
488.043;  127.296;  -10.646;  748.361
488.631;  136.164;   -7.456; 1005.079
489.220;  140.068;   -6.636;  908.626
489.808;  139.771;  -11.036;  741.415
490.396;  147.173;  -10.246;  914.645
490.984;  153.669;   -8.556;  830.161
491.572;  163.180;   -5.886;  940.315
492.160;  170.250;   -9.486;  919.081
492.748;  180.665;  -10.976;  884.341
493.336;  203.588;   -8.776; 1019.693
493.924;  229.609;   -5.465;  958.077
494.512;  257.210;   -9.986; 1066.638
495.100;  292.260;  -10.636; 1103.280
495.687;  346.498;  -10.885; 1206.373
496.275;  405.400;   -8.126; 1150.796
496.863;  472.071;  -10.586; 1281.171
497.451;  571.074;  -11.926; 1386.805
498.038;  702.986;  -10.885; 1556.729
498.626;  810.883;   -6.315; 1741.407
499.214;  954.448;   -7.326; 2016.609
499.801; 1143.659;  -11.906; 2220.633
500.389; 1391.970;  -10.466; 2312.494
500.976; 1700.256;   -5.236; 2744.849
501.564; 2110.427;   -8.936; 3148.565
502.151; 2463.550;  -13.176; 3515.999
502.738; 2912.202;  -10.646; 3971.274
503.326; 3314.293;   -9.525; 4403.796
503.913; 3688.174;  -10.856; 5161.749
504.500; 4005.893;  -11.586; 5986.420
505.088; 4472.796;  -10.336; 6381.201
505.675; 4997.221;   -6.355; 6925.547
506.262; 5609.482;   -9.046; 7619.060
506.849; 6328.301;  -10.416; 8733.969
507.436; 6783.977;  -10.305; 9790.121
508.023; 7314.273;   -5.496; 9985.472
508.610; 7585.743;   -7.856;10434.618
509.197; 8211.811;  -10.097;11198.435
509.784; 9566.505;  -10.886;12391.194
510.371;10548.707;   -9.315;13603.713
510.958;11285.930;   -9.936;14426.586
511.545;12053.395;   -9.326;15243.775
512.132;12828.907;  -10.075;15945.876
512.719;13371.731;   -7.796;16340.369
513.305;14269.175;  -10.606;18011.766
513.892;15028.577;  -11.486;19754.971
514.479;16499.230;   -9.126;20967.805
515.066;18040.387;   -6.026;22299.793
515.652;19179.703;   -8.466;22908.660
516.239;20169.352;  -10.886;23798.875
516.825;21122.158;  -11.496;25567.275
517.412;22160.928;   -5.796;28154.959
517.998;23027.363;  -10.506;28344.111
518.585;23108.492;  -10.076;27134.219
519.171;23255.098;   -8.315;27268.576
519.758;24280.273;   -8.596;28964.129
520.344;26187.395;   -8.466;30664.494
520.930;26526.824;  -11.006;32550.605
521.516;27931.566;  -10.495;35422.895
522.103;30318.164;   -5.526;38280.004
522.689;31100.320;   -8.746;37835.117
523.275;30739.813;  -11.376;37288.613
523.861;31368.266;  -11.156;37281.395
524.447;32204.252;   -8.135;37846.949
525.033;31512.346;   -7.896;38321.949
525.619;31381.143;  -12.476;38579.285
526.205;32084.900;   -9.516;40622.875
526.791;32755.436;   -6.926;42258.836
527.377;31023.586;   -8.346;42966.902
527.963;33630.738;   -8.717;42018.949
528.549;35495.590;  -11.016;42476.828
529.135;36207.750;   -8.536;41854.852
529.721;36483.656;   -9.666;41237.711
530.306;35961.121;  -10.066;41259.445
530.892;35987.898;  -11.356;41506.047
531.478;37376.156;   -6.596;43559.613
532.063;39613.008;   -8.836;47695.563
532.649;39736.813;  -10.047;50808.324
533.235;40829.090;   -9.746;51787.500
533.820;42025.410;   -6.566;52145.035
534.406;42646.363;  -10.817;51133.488
534.991;41939.691;   -9.416;49996.805
535.576;40625.277;   -9.036;48882.852
536.162;40796.113;   -6.156;46942.285
536.747;41415.684;  -11.607;45711.746
537.333;44170.828;  -11.787;48510.180
537.918;46367.379;  -12.437;50439.891
538.503;43582.934;   -7.196;50863.711
539.088;38330.078;  -10.556;50906.922
539.673;36053.129;   -8.767;52621.965
540.259;36195.703;  -10.026;52368.094
540.844;36720.539;   -7.416;50879.109
541.429;40488.055;   -9.467;52077.777
542.014;46013.738;   -9.527;52716.695
542.599;47243.816;   -9.946;52363.281
543.184;44713.688;   -7.927;53187.137
543.769;45686.484;   -9.297;54697.605
544.354;45275.598;  -10.127;53913.914
544.938;44373.902;   -9.267;49680.164
545.523;46548.773;   -6.506;47386.277
546.108;49071.813;   -9.787;49151.949
546.693;51263.699;  -11.587;51384.637
547.278;50898.777;  -10.986;51853.254
547.862;47563.020;   -8.206;51173.750
548.447;42927.316;  -10.067;51691.395
549.031;42170.719;   -9.637;52456.703
549.616;46700.969;   -9.926;52714.516
550.201;46028.867;   -6.347;52414.598
550.785;46803.984;   -7.917;52355.059
551.370;46219.895;  -10.867;54589.453
551.954;46069.844;   -9.047;58267.348
552.538;47396.301;   -7.827;59062.176
553.123;45785.531;  -10.287;58115.285
553.707;43289.781;  -12.178;56556.285
554.291;44032.215;   -8.717;56201.668
554.876;45786.398;   -7.457;55335.762
555.460;46402.422;  -10.387;54155.703
556.044;48445.445;   -9.618;53721.484
556.628;46766.910;  -11.567;53731.016
557.212;45290.168;   -8.097;54312.531
557.796;43263.430;  -11.077;53797.773
558.380;43613.441;  -11.108;56145.984
558.964;44980.781;   -9.057;57277.930
559.548;46059.625;   -6.977;56459.641
560.132;43791.152;  -11.457;54434.543
560.716;42517.359;  -11.378;54800.617
561.300;43253.801;   -9.577;57606.945
561.884;44393.965;   -7.127;58972.445
562.467;43314.734;   -7.118;57327.570
563.051;42749.766;  -13.358;54962.434
563.635;43018.090;  -10.178;52594.473
564.219;43369.355;   -7.837;50610.410
564.802;44330.941;  -11.398;49551.180
565.386;44599.270;  -12.788;48370.953
565.969;44209.828;   -9.077;48178.871
566.553;43086.695;   -6.207;49957.305
567.136;43292.070;   -8.568;50369.594
567.720;39685.672;  -11.868;49492.004
568.303;37908.070;   -8.268;50616.352
568.887;37804.465;   -8.698;50727.148
569.470;37980.848;   -6.808;51698.379
570.053;36978.047;  -13.188;52122.078
570.637;35701.734;  -12.037;52536.438
571.220;35278.086;   -8.577;51186.098
571.803;35345.684;   -8.498;51032.762
572.386;37206.305;  -10.498;49609.887
572.969;39951.438;   -9.388;48285.926
573.552;38801.391;   -8.338;47624.285
574.135;37673.879;   -8.518;45498.641
574.718;35061.949;  -13.628;41970.434
575.301;33966.309;  -10.893;41447.137
575.884;32870.672;   -8.158;40923.836
576.467;33886.195;  -10.328;45267.723
577.050;36005.910;  -13.058;48175.543
577.633;37721.594;   -9.458;47729.328
578.216;36746.520;   -8.928;47579.793
578.799;35672.219;   -9.358;47820.996
579.381;34269.934;  -11.388;48115.551
579.964;32549.039;  -11.718;47333.766
580.547;33827.273;   -8.588;46668.969
581.129;34591.457;   -8.859;44466.141
581.712;35106.301;  -10.729;44164.922
582.294;35918.691;  -11.118;46477.855
582.877;36163.672;   -5.218;48244.254
583.459;34305.848;   -8.679;47437.895
584.042;32628.572;  -10.709;46943.219
584.624;32981.848;  -11.669;46792.227
585.206;32446.654;   -8.218;46557.250
585.789;32424.559;  -10.569;45793.773
586.371;35288.617;  -11.859;43836.391
586.953;36209.359;  -10.719;42972.492
587.536;37246.750;   -7.198;42487.211
588.118;37426.898;   -8.720;42086.414
588.700;33586.676;  -10.439;43389.930
589.282;32540.313;   -9.198;43646.039
589.864;33388.453;   -9.199;43438.109
590.446;34728.449;  -11.319;43151.926
591.028;34621.195;  -11.159;42781.867
591.610;33619.105;  -11.779;42839.098
592.192;30666.951;   -7.668;42820.402
592.774;28956.695;  -11.949;40724.277
593.356;27818.781;  -12.129;39874.789
593.937;27322.943;  -10.669;39980.648
594.519;29255.010;   -6.509;42069.633
595.101;31579.303;  -10.849;42976.031
