
Integration time [ms]:   3.276
Averaging Nr. [scans]: 1000
Smoothing Nr. [pixels]: 0
Data measured with spectrometer [name]: 7414430SP
Wave   ;Sample   ;Dark     ;Reference
[nm]   ;[counts] ;[counts] ;[counts] 

288.544;  151.115;    7.793;  793.890
289.143;  154.885;    7.462;  681.602
289.742;  155.347;    8.602;  828.814
290.341;  141.068;    1.321;  789.841
290.940;  129.813;   -0.709;  730.702
291.538;  130.413;    0.881;  881.108
292.137;  131.402;    0.122;  792.581
292.736;  136.114;   -1.929;  975.101
293.335;  132.163;   -8.229;  735.086
293.934;  132.150;   -5.279;  781.677
294.532;  130.146;   -1.369; 1031.958
295.131;  117.983;   -7.641;  834.394
295.730;  117.476;   -8.420;  809.588
296.328;  115.105;   -5.611;  783.442
296.927;  116.799;   -5.781;  779.652
297.525;  118.436;   -6.361;  781.236
298.124;  109.161;  -11.382;  654.009
298.722;  111.875;   -7.641;  761.933
299.321;  109.570;   -6.811;  708.597
299.919;  107.673;   -6.991;  751.918
300.518;  105.470;  -10.362;  689.338
301.116;  106.041;   -9.581;  691.381
301.715;  106.472;   -4.891;  730.222
302.313;  106.044;   -8.801;  704.943
302.911;  100.887;   -8.522;  733.830
303.509;  106.074;   -6.171;  925.627
304.108;  103.086;   -7.311;  760.383
304.706;  103.123;   -8.321;  801.664
305.304;   98.125;  -10.222;  796.707
305.902;  102.270;   -6.021;  784.484
306.500;   98.437;   -4.971;  728.200
307.098;   96.999;   -7.061;  746.560
307.696;   95.139;   -8.801;  780.432
308.294;   95.133;   -6.411;  731.359
308.892;   97.089;   -2.901;  759.769
309.490;   93.595;   -5.041;  712.161
310.088;   92.527;   -5.002;  788.444
310.686;   96.764;   -2.041;  821.749
311.284;   91.747;   -2.351;  766.040
311.882;   90.383;   -4.422;  731.225
312.480;   86.998;   -4.192;  697.167
313.078;   87.849;   -1.172;  808.331
313.675;   88.830;   -2.601;  691.600
314.273;   83.715;   -1.312;  797.837
314.871;   83.575;   -3.942;  589.829
315.468;   82.074;   -2.802;  652.090
316.066;   83.663;   -0.701;  694.427
316.664;   77.720;   -4.362;  656.351
317.261;   80.917;   -2.872;  910.128
317.859;   76.332;   -2.022;  768.735
318.456;   77.777;   -0.531;  830.096
319.054;   73.727;   -3.912;  787.828
319.651;   72.085;   -4.752;  759.928
320.249;   70.931;   -2.602;  810.188
320.846;   68.672;   -0.821;  714.286
321.443;   66.765;   -4.642;  832.135
322.041;   63.534;   -5.002;  812.315
322.638;   60.924;   -3.982;  701.456
323.235;   63.013;   -3.411;  665.683
323.833;   59.788;   -7.361;  740.354
324.430;   55.240;   -8.611;  615.900
325.027;   55.805;   -4.061;  876.855
325.624;   55.560;   -4.031;  644.532
326.221;   53.049;   -7.481;  689.717
326.818;   52.403;   -5.281;  818.332
327.415;   56.317;   -7.460;  748.828
328.012;   54.997;   -5.510;  690.585
328.609;   53.200;   -7.880;  731.389
329.206;   51.698;   -8.331;  778.621
329.803;   51.945;   -5.121;  737.841
330.400;   54.482;   -4.510;  704.260
330.997;   56.307;   -6.441;  817.147
331.594;   54.740;   -8.831;  788.185
332.191;   58.844;   -7.621;  728.722
332.787;   62.436;   -4.591;  844.463
333.384;   62.156;   -7.412;  763.093
333.981;   59.977;   -8.293;  815.687
334.578;   62.830;   -7.052;  708.378
335.174;   65.113;   -3.102;  731.469
335.771;   65.513;   -5.943;  836.456
336.367;   62.305;   -7.393;  710.631
336.964;   65.697;   -4.063;  793.266
337.561;   63.390;   -3.813;  731.112
338.157;   59.720;   -4.654;  911.916
338.754;   56.820;   -7.934;  796.589
339.350;   54.965;   -4.414;  722.493
339.946;   57.287;   -4.664;  773.135
340.543;   49.497;   -6.375;  846.136
341.139;   43.557;   -9.815;  720.836
341.735;   41.043;   -4.526;  772.593
342.332;   40.291;   -4.895;  691.472
342.928;   40.896;   -4.295;  795.394
343.524;   34.891;   -5.476;  761.684
344.120;   31.188;   -5.856;  738.562
344.716;   33.979;   -2.155;  723.717
345.313;   32.531;   -6.275;  795.342
345.909;   26.147;   -8.815;  627.336
346.505;   28.017;   -5.305;  740.247
347.101;   28.797;   -2.674;  827.864
347.697;   29.816;   -4.344;  785.398
348.293;   24.358;   -9.975;  627.244
348.889;   24.517;   -5.774;  745.914
349.485;   24.252;   -5.004;  688.205
350.081;   26.042;   -4.704;  772.592
350.676;   19.804;   -6.635;  691.606
351.272;   23.858;   -4.504;  809.530
351.868;   23.987;   -3.914;  780.497
352.464;   21.459;   -9.044;  723.932
353.059;   17.834;   -8.314;  646.017
353.655;   20.953;   -7.024;  777.063
354.251;   22.198;   -5.343;  759.845
354.846;   17.479;   -8.604;  740.646
355.442;   14.729;   -6.945;  753.071
356.038;   16.045;   -7.564;  751.708
356.633;   16.322;   -5.814;  728.594
357.229;   14.779;   -7.364;  724.757
357.824;   12.999;   -8.024;  703.600
358.420;   12.182;   -9.384;  679.726
359.015;   12.309;   -5.104;  695.357
359.610;   13.202;   -6.854;  763.920
360.206;    7.123;  -10.185;  603.240
360.801;    9.968;   -7.054;  646.503
361.396;   12.813;   -5.034;  725.975
361.992;    8.193;   -8.284;  668.220
362.587;    5.562;   -8.625;  670.160
363.182;    6.782;   -7.674;  689.631
363.777;    7.126;   -5.164;  738.242
364.372;    7.971;   -8.604;  737.314
364.967;    4.096;   -9.055;  680.744
365.563;    8.395;   -6.114;  815.567
366.158;    5.176;   -5.814;  685.161
366.753;    6.051;   -7.854;  649.263
367.348;    3.947;   -7.804;  746.056
367.942;    4.455;   -7.954;  697.298
368.537;    3.044;   -4.984;  754.245
369.132;    3.002;   -8.564;  703.428
369.727;   -0.061;   -8.855;  638.079
370.322;    1.231;   -6.245;  580.186
370.917;    0.543;   -6.425;  710.646
371.511;    3.887;   -6.294;  861.834
372.106;    0.063;   -7.685;  776.964
372.701;   -2.818;   -7.335;  585.988
373.296;    2.653;   -4.564;  863.135
373.890;   -2.564;  -10.235;  647.840
374.485;   -4.519;   -7.885;  691.199
375.079;   -0.312;   -7.324;  738.685
375.674;    0.846;   -3.494;  812.970
376.268;   -3.218;   -8.525;  691.759
376.863;   -9.139;  -10.086;  580.327
377.457;   -4.186;   -7.025;  662.490
378.052;   -5.396;   -3.585;  764.884
378.646;   -5.564;   -7.595;  741.167
379.240;   -6.211;   -8.335;  721.176
379.835;   -5.511;   -5.785;  636.978
380.429;   -7.687;   -4.335;  562.557
381.023;   -6.846;   -6.805;  779.205
381.617;   -8.777;   -9.195;  680.106
382.212;   -6.153;   -6.905;  685.303
382.806;   -5.664;   -3.745;  760.690
383.400;   -8.665;   -7.745;  672.281
383.994;  -10.115;   -9.765;  664.870
384.588;   -6.600;   -6.564;  697.701
385.182;   -5.781;   -5.344;  726.624
385.776;   -7.196;   -8.514;  706.875
386.370;   -9.971;   -9.555;  681.968
386.964;   -9.081;   -8.715;  684.155
387.558;   -7.064;   -6.174;  598.360
388.152;  -10.286;   -8.725;  681.959
388.745;   -9.067;   -7.965;  814.707
389.339;   -6.974;   -5.924;  747.642
389.933;   -6.095;   -5.524;  695.370
390.527;   -6.395;   -7.114;  859.029
391.120;  -12.983;  -10.725;  595.318
391.714;  -10.461;   -8.035;  711.633
392.308;   -7.954;   -3.574;  780.253
392.901;  -10.429;   -7.245;  642.460
393.495;  -12.024;   -9.285;  595.414
394.089;  -10.206;   -5.895;  760.452
394.682;  -11.437;   -4.295;  697.188
395.275;  -11.898;   -9.875;  719.927
395.869;  -12.693;   -8.485;  667.314
396.462;  -11.374;   -7.455;  616.609
397.056;   -7.142;   -5.424;  776.621
397.649;  -11.682;   -6.605;  731.575
398.242;   -9.426;   -8.224;  712.645
398.836;   -8.834;   -7.474;  766.408
399.429;  -10.055;   -7.094;  631.041
400.022;  -13.289;   -9.475;  665.902
400.615;  -10.789;   -7.145;  805.609
401.208;   -8.357;   -7.174;  691.451
401.802;  -11.280;   -5.515;  699.329
402.395;  -12.395;   -9.875;  683.502
402.988;  -12.909;   -8.845;  696.627
403.581;  -10.482;   -8.874;  646.878
404.174;   -7.333;   -5.324;  686.568
404.767;  -10.384;   -9.575;  638.583
405.360;  -12.678;  -10.965;  621.445
405.953;   -7.615;   -8.764;  759.034
406.545;   -7.098;   -7.514;  725.342
407.138;  -10.643;  -10.025;  618.350
407.731;   -9.940;  -10.034;  613.303
408.324;   -5.885;   -9.374;  660.554
408.917;   -7.344;   -6.534;  681.864
409.509;   -8.854;   -8.004;  740.396
410.102;  -10.847;   -9.875;  643.948
410.695;   -4.878;   -8.604;  665.758
411.287;   -5.861;   -6.794;  599.821
411.880;   -7.028;   -9.334;  585.421
412.472;  -10.414;  -10.254;  613.092
413.065;   -7.553;   -6.714;  629.408
413.657;   -5.802;   -7.234;  576.678
414.250;   -4.590;  -10.544;  646.681
414.842;   -6.856;   -9.744;  676.353
415.434;   -5.230;   -6.994;  570.463
416.027;   -0.531;   -5.893;  652.196
416.619;   -1.851;   -7.264;  713.400
417.211;   -2.625;  -10.374;  599.352
417.804;    0.464;   -7.993;  628.499
418.396;   -3.551;   -7.234;  607.643
418.988;   -0.670;   -9.443;  659.238
419.580;   -4.390;  -10.724;  568.276
420.172;   -1.895;  -10.323;  536.196
420.764;    2.020;   -8.793;  672.482
421.356;    0.809;  -11.143;  636.898
421.948;    0.633;   -8.293;  677.661
422.540;    4.840;   -7.893;  680.027
423.132;    4.516;   -7.082;  600.641
423.724;    1.569;   -8.653;  561.267
424.316;    3.350;  -10.213;  621.345
424.908;    6.746;   -9.762;  591.517
425.500;    6.902;   -5.572;  647.978
426.092;    7.898;   -8.422;  648.268
426.683;    7.057;   -9.283;  684.836
427.275;    9.968;   -7.852;  641.471
427.867;   10.851;   -5.272;  668.948
428.458;   11.377;   -7.682;  732.344
429.050;   10.957;  -10.612;  680.749
429.642;   13.089;   -9.882;  743.124
430.233;   12.849;   -6.962;  569.356
430.825;   14.368;   -6.842;  724.809
431.416;   11.921;   -9.672;  698.241
432.008;   15.138;   -6.552;  651.723
432.599;   15.992;   -6.891;  656.073
433.190;   14.163;  -10.912;  637.670
433.782;   12.589;  -11.172;  590.395
434.373;   19.544;   -6.061;  884.765
434.964;   17.717;   -8.251;  602.920
435.556;   16.840;   -9.722;  634.537
436.147;   19.699;   -9.082;  758.490
436.738;   19.105;   -8.041;  701.099
437.329;   23.746;   -7.341;  721.723
437.920;   17.875;   -8.162;  666.688
438.511;   17.834;  -11.802;  564.526
439.103;   24.091;  -10.191;  623.998
439.694;   26.394;   -7.601;  681.583
440.285;   27.000;   -8.541;  764.432
440.876;   24.761;   -9.751;  845.738
441.466;   23.770;   -9.401;  575.162
442.057;   29.608;   -7.760;  665.814
442.648;   28.844;   -9.971;  746.255
443.239;   27.599;  -11.001;  620.477
443.830;   31.991;   -7.990;  704.958
444.421;   33.588;   -7.910;  655.474
445.011;   30.469;   -8.131;  693.619
445.602;   29.796;   -7.111;  743.126
446.193;   31.195;  -10.920;  488.117
446.783;   36.495;   -6.500;  640.397
447.374;   32.019;   -8.671;  692.759
447.964;   33.193;  -10.781;  713.770
448.555;   40.404;   -9.650;  822.742
449.145;   36.837;   -8.660;  662.853
449.736;   38.909;   -8.990;  803.179
450.326;   38.531;   -9.500;  713.626
450.917;   42.595;   -8.680;  675.324
451.507;   42.026;   -7.520;  600.661
452.097;   43.728;   -8.590;  746.267
452.688;   44.759;  -11.340;  742.160
453.278;   43.629;  -10.100;  566.840
453.868;   47.728;   -6.019;  793.550
454.458;   45.886;   -9.440;  651.141
455.048;   47.003;  -10.560;  711.783
455.639;   48.271;  -11.799;  567.096
456.229;   51.690;   -6.899;  710.694
456.819;   53.200;   -7.389;  751.158
457.409;   54.087;  -11.119;  773.993
457.999;   55.900;   -9.289;  737.505
458.589;   56.792;   -6.139;  686.606
459.179;   56.436;   -8.729;  717.658
459.769;   54.678;   -9.789;  627.099
460.358;   59.932;  -10.259;  797.262
460.948;   59.682;   -7.299;  689.503
461.538;   61.556;  -10.289;  660.677
462.128;   59.530;  -11.269;  664.934
462.717;   66.088;   -9.368;  710.326
463.307;   69.166;   -7.908;  705.846
463.897;   65.448;   -9.599;  656.942
464.486;   64.731;   -9.769;  837.128
465.076;   68.876;   -8.048;  733.776
465.666;   72.131;   -9.358;  652.900
466.255;   70.406;   -7.919;  785.651
466.845;   70.003;  -11.689;  666.749
467.434;   72.686;   -7.818;  725.873
468.023;   72.641;   -7.678;  658.357
468.613;   71.036;  -10.939;  713.946
469.202;   75.428;  -10.118;  646.507
469.791;   79.863;   -9.108;  737.811
470.381;   81.393;   -6.058;  742.813
470.970;   81.800;  -10.428;  711.099
471.559;   81.358;  -10.268;  733.291
472.148;   84.213;   -8.448;  675.737
472.738;   86.615;   -6.917;  765.466
473.327;   87.196;  -11.978;  637.529
473.916;   86.824;  -11.888;  737.446
474.505;   90.734;   -9.437;  751.703
475.094;   94.233;   -6.747;  806.570
475.683;   93.637;   -9.367;  797.699
476.272;   93.893;  -12.637;  730.632
476.861;   97.211;  -10.027;  706.754
477.449;  103.622;   -8.716;  728.487
478.038;   98.775;   -9.577;  692.513
478.627;   99.524;   -9.718;  714.852
479.216;  106.008;   -8.947;  769.441
479.805;  109.437;   -6.256;  783.375
480.393;  109.428;   -7.937; 1008.945
480.982;  108.284;   -7.717;  874.501
481.571;  114.706;   -9.266;  858.333
482.159;  115.056;   -7.636;  705.386
482.748;  115.813;   -9.667;  821.385
483.336;  120.490;  -10.376;  858.209
483.925;  120.350;   -7.147;  774.373
484.513;  127.242;   -7.996;  758.962
485.102;  124.045;  -10.027;  810.965
485.690;  133.400;  -10.446; 1011.050
486.278;  135.355;   -8.446;  979.329
486.867;  136.143;   -6.356;  809.662
487.455;  138.103;   -9.136;  898.229
488.043;  139.016;  -10.646;  748.361
488.631;  148.353;   -7.456; 1005.079
489.220;  152.000;   -6.636;  908.626
489.808;  153.410;  -11.036;  741.415
490.396;  161.673;  -10.246;  914.645
490.984;  167.526;   -8.556;  830.161
491.572;  178.453;   -5.886;  940.315
492.160;  184.782;   -9.486;  919.081
492.748;  197.131;  -10.976;  884.341
493.336;  222.190;   -8.776; 1019.693
493.924;  250.003;   -5.465;  958.077
494.512;  281.704;   -9.986; 1066.638
495.100;  324.688;  -10.636; 1103.280
495.687;  380.829;  -10.885; 1206.373
496.275;  447.392;   -8.126; 1150.796
496.863;  515.827;  -10.586; 1281.171
497.451;  624.662;  -11.926; 1386.805
498.038;  779.619;  -10.885; 1556.729
498.626;  906.561;   -6.315; 1741.407
499.214; 1055.087;   -7.326; 2016.609
499.801; 1268.222;  -11.906; 2220.633
500.389; 1545.220;  -10.466; 2312.494
500.976; 1909.558;   -5.236; 2744.849
501.564; 2366.978;   -8.936; 3148.565
502.151; 2775.744;  -13.176; 3515.999
502.738; 3291.579;  -10.646; 3971.274
503.326; 3705.009;   -9.525; 4403.796
503.913; 4131.805;  -10.856; 5161.749
504.500; 4497.344;  -11.586; 5986.420
505.088; 4985.699;  -10.336; 6381.201
505.675; 5566.187;   -6.355; 6925.547
506.262; 6237.010;   -9.046; 7619.060
506.849; 7062.536;  -10.416; 8733.969
507.436; 7581.683;  -10.305; 9790.121
508.023; 8132.008;   -5.496; 9985.472
508.610; 8433.104;   -7.856;10434.618
509.197; 9104.549;  -10.097;11198.435
509.784;10645.300;  -10.886;12391.194
510.371;11821.041;   -9.315;13603.713
510.958;12598.835;   -9.936;14426.586
511.545;13375.954;   -9.326;15243.775
512.132;14256.682;  -10.075;15945.876
512.719;14883.394;   -7.796;16340.369
513.305;15953.071;  -10.606;18011.766
513.892;16801.547;  -11.486;19754.971
514.479;18365.945;   -9.126;20967.805
515.066;19885.541;   -6.026;22299.793
515.652;21045.508;   -8.466;22908.660
516.239;22422.744;  -10.886;23798.875
516.825;23440.252;  -11.496;25567.275
517.412;24484.668;   -5.796;28154.959
517.998;25459.373;  -10.506;28344.111
518.585;25542.471;  -10.076;27134.219
519.171;25639.563;   -8.315;27268.576
519.758;26808.059;   -8.596;28964.129
520.344;28616.754;   -8.466;30664.494
520.930;28902.980;  -11.006;32550.605
521.516;30893.863;  -10.495;35422.895
522.103;33666.563;   -5.526;38280.004
522.689;34645.105;   -8.746;37835.117
523.275;34109.184;  -11.376;37288.613
523.861;34474.781;  -11.156;37281.395
524.447;35692.359;   -8.135;37846.949
525.033;35247.777;   -7.896;38321.949
525.619;35583.672;  -12.476;38579.285
526.205;37296.965;   -9.516;40622.875
526.791;40280.918;   -6.926;42258.836
527.377;40260.141;   -8.346;42966.902
527.963;42219.961;   -8.717;42018.949
528.549;41070.063;  -11.016;42476.828
529.135;39343.293;   -8.536;41854.852
529.721;38697.281;   -9.666;41237.711
530.306;38124.797;  -10.066;41259.445
530.892;38185.758;  -11.356;41506.047
531.478;39465.344;   -6.596;43559.613
532.063;41686.211;   -8.836;47695.563
532.649;41795.840;  -10.047;50808.324
533.235;43317.191;   -9.746;51787.500
533.820;45042.602;   -6.566;52145.035
534.406;45758.180;  -10.817;51133.488
534.991;45168.055;   -9.416;49996.805
535.576;43900.711;   -9.036;48882.852
536.162;44420.391;   -6.156;46942.285
536.747;45720.859;  -11.607;45711.746
537.333;49406.883;  -11.787;48510.180
537.918;52182.152;  -12.437;50439.891
538.503;50769.199;   -7.196;50863.711
539.088;47721.797;  -10.556;50906.922
539.673;47921.660;   -8.767;52621.965
540.259;47342.871;  -10.026;52368.094
540.844;44518.484;   -7.416;50879.109
541.429;45245.809;   -9.467;52077.777
542.014;48934.766;   -9.527;52716.695
542.599;48963.328;   -9.946;52363.281
543.184;45862.336;   -7.927;53187.137
543.769;46935.254;   -9.297;54697.605
544.354;46593.332;  -10.127;53913.914
544.938;45843.750;   -9.267;49680.164
545.523;47996.570;   -6.506;47386.277
546.108;50080.816;   -9.787;49151.949
546.693;52466.473;  -11.587;51384.637
547.278;52441.203;  -10.986;51853.254
547.862;48989.270;   -8.206;51173.750
548.447;44260.875;  -10.067;51691.395
549.031;43668.645;   -9.637;52456.703
549.616;48542.746;   -9.926;52714.516
550.201;47482.266;   -6.347;52414.598
550.785;48063.258;   -7.917;52355.059
551.370;47788.992;  -10.867;54589.453
551.954;48430.660;   -9.047;58267.348
552.538;50107.059;   -7.827;59062.176
553.123;48410.336;  -10.287;58115.285
553.707;45908.566;  -12.178;56556.285
554.291;46246.828;   -8.717;56201.668
554.876;47306.742;   -7.457;55335.762
555.460;48207.832;  -10.387;54155.703
556.044;50429.074;   -9.618;53721.484
556.628;48545.105;  -11.567;53731.016
557.212;47424.504;   -8.097;54312.531
557.796;45529.891;  -11.077;53797.773
558.380;45618.551;  -11.108;56145.984
558.964;46714.051;   -9.057;57277.930
559.548;47475.152;   -6.977;56459.641
560.132;45483.105;  -11.457;54434.543
560.716;44352.844;  -11.378;54800.617
561.300;45006.023;   -9.577;57606.945
561.884;46210.430;   -7.127;58972.445
562.467;45481.293;   -7.118;57327.570
563.051;44920.102;  -13.358;54962.434
563.635;45426.301;  -10.178;52594.473
564.219;46071.598;   -7.837;50610.410
564.802;46774.285;  -11.398;49551.180
565.386;47110.645;  -12.788;48370.953
565.969;46803.598;   -9.077;48178.871
566.553;45992.984;   -6.207;49957.305
567.136;45850.688;   -8.568;50369.594
567.720;41884.469;  -11.868;49492.004
568.303;40013.563;   -8.268;50616.352
568.887;39941.879;   -8.698;50727.148
569.470;40190.316;   -6.808;51698.379
570.053;39019.305;  -13.188;52122.078
570.637;37513.730;  -12.037;52536.438
571.220;36919.898;   -8.577;51186.098
571.803;37116.738;   -8.498;51032.762
572.386;39533.977;  -10.498;49609.887
572.969;42600.875;   -9.388;48285.926
573.552;40962.973;   -8.338;47624.285
574.135;39782.816;   -8.518;45498.641
574.718;36942.063;  -13.628;41970.434
575.301;35629.348;  -10.893;41447.137
575.884;34316.633;   -8.158;40923.836
576.467;35378.117;  -10.328;45267.723
577.050;38152.328;  -13.058;48175.543
577.633;39985.160;   -9.458;47729.328
578.216;38783.406;   -8.928;47579.793
578.799;37740.543;   -9.358;47820.996
579.381;36103.496;  -11.388;48115.551
579.964;34522.828;  -11.718;47333.766
580.547;35668.648;   -8.588;46668.969
581.129;36122.195;   -8.859;44466.141
581.712;36309.402;  -10.729;44164.922
582.294;37293.754;  -11.118;46477.855
582.877;38010.113;   -5.218;48244.254
583.459;36064.473;   -8.679;47437.895
584.042;34292.406;  -10.709;46943.219
584.624;34762.121;  -11.669;46792.227
585.206;33941.109;   -8.218;46557.250
585.789;34248.809;  -10.569;45793.773
586.371;37415.430;  -11.859;43836.391
586.953;37867.141;  -10.719;42972.492
587.536;38507.910;   -7.198;42487.211
588.118;38381.941;   -8.720;42086.414
588.700;35221.219;  -10.439;43389.930
589.282;34344.051;   -9.198;43646.039
589.864;35039.430;   -9.199;43438.109
590.446;36166.387;  -11.319;43151.926
591.028;35827.844;  -11.159;42781.867
591.610;34778.633;  -11.779;42839.098
592.192;31901.227;   -7.668;42820.402
592.774;30338.691;  -11.949;40724.277
593.356;29353.242;  -12.129;39874.789
593.937;29071.008;  -10.669;39980.648
594.519;31234.234;   -6.509;42069.633
595.101;33465.820;  -10.849;42976.031
