
Integration time [ms]:   3.276
Averaging Nr. [scans]: 1000
Smoothing Nr. [pixels]: 0
Data measured with spectrometer [name]: 7414430SP
Wave   ;Sample   ;Dark     ;Reference
[nm]   ;[counts] ;[counts] ;[counts] 

288.544;  150.573;    7.793;  793.890
289.143;  154.759;    7.462;  681.602
289.742;  155.089;    8.602;  828.814
290.341;  140.238;    1.321;  789.841
290.940;  129.014;   -0.709;  730.702
291.538;  131.059;    0.881;  881.108
292.137;  130.523;    0.122;  792.581
292.736;  135.751;   -1.929;  975.101
293.335;  131.830;   -8.229;  735.086
293.934;  131.608;   -5.279;  781.677
294.532;  130.613;   -1.369; 1031.958
295.131;  116.484;   -7.641;  834.394
295.730;  116.873;   -8.420;  809.588
296.328;  115.670;   -5.611;  783.442
296.927;  116.383;   -5.781;  779.652
297.525;  117.071;   -6.361;  781.236
298.124;  107.412;  -11.382;  654.009
298.722;  111.340;   -7.641;  761.933
299.321;  109.269;   -6.811;  708.597
299.919;  107.263;   -6.991;  751.918
300.518;  104.468;  -10.362;  689.338
301.116;  106.021;   -9.581;  691.381
301.715;  105.304;   -4.891;  730.222
302.313;  105.119;   -8.801;  704.943
302.911;  100.329;   -8.522;  733.830
303.509;  105.570;   -6.171;  925.627
304.108;  103.167;   -7.311;  760.383
304.706;  102.728;   -8.321;  801.664
305.304;   96.339;  -10.222;  796.707
305.902;  101.868;   -6.021;  784.484
306.500;   98.034;   -4.971;  728.200
307.098;   96.066;   -7.061;  746.560
307.696;   94.368;   -8.801;  780.432
308.294;   94.987;   -6.411;  731.359
308.892;   97.049;   -2.901;  759.769
309.490;   92.996;   -5.041;  712.161
310.088;   91.581;   -5.002;  788.444
310.686;   94.963;   -2.041;  821.749
311.284;   90.818;   -2.351;  766.040
311.882;   88.782;   -4.422;  731.225
312.480;   85.760;   -4.192;  697.167
313.078;   87.572;   -1.172;  808.331
313.675;   87.900;   -2.601;  691.600
314.273;   83.533;   -1.312;  797.837
314.871;   82.464;   -3.942;  589.829
315.468;   81.316;   -2.802;  652.090
316.066;   83.878;   -0.701;  694.427
316.664;   75.598;   -4.362;  656.351
317.261;   79.843;   -2.872;  910.128
317.859;   75.572;   -2.022;  768.735
318.456;   75.652;   -0.531;  830.096
319.054;   72.149;   -3.912;  787.828
319.651;   71.394;   -4.752;  759.928
320.249;   70.281;   -2.602;  810.188
320.846;   67.954;   -0.821;  714.286
321.443;   65.029;   -4.642;  832.135
322.041;   61.892;   -5.002;  812.315
322.638;   60.433;   -3.982;  701.456
323.235;   60.944;   -3.411;  665.683
323.833;   58.344;   -7.361;  740.354
324.430;   53.037;   -8.611;  615.900
325.027;   54.448;   -4.061;  876.855
325.624;   54.018;   -4.031;  644.532
326.221;   51.997;   -7.481;  689.717
326.818;   50.861;   -5.281;  818.332
327.415;   54.353;   -7.460;  748.828
328.012;   53.583;   -5.510;  690.585
328.609;   51.778;   -7.880;  731.389
329.206;   49.448;   -8.331;  778.621
329.803;   50.660;   -5.121;  737.841
330.400;   52.816;   -4.510;  704.260
330.997;   55.016;   -6.441;  817.147
331.594;   52.925;   -8.831;  788.185
332.191;   58.402;   -7.621;  728.722
332.787;   61.018;   -4.591;  844.463
333.384;   59.561;   -7.412;  763.093
333.981;   58.524;   -8.293;  815.687
334.578;   61.564;   -7.052;  708.378
335.174;   64.131;   -3.102;  731.469
335.771;   64.003;   -5.943;  836.456
336.367;   60.356;   -7.393;  710.631
336.964;   64.750;   -4.063;  793.266
337.561;   61.998;   -3.813;  731.112
338.157;   58.058;   -4.654;  911.916
338.754;   55.616;   -7.934;  796.589
339.350;   53.337;   -4.414;  722.493
339.946;   56.420;   -4.664;  773.135
340.543;   47.404;   -6.375;  846.136
341.139;   42.836;   -9.815;  720.836
341.735;   40.178;   -4.526;  772.593
342.332;   38.433;   -4.895;  691.472
342.928;   39.386;   -4.295;  795.394
343.524;   33.143;   -5.476;  761.684
344.120;   29.513;   -5.856;  738.562
344.716;   31.767;   -2.155;  723.717
345.313;   30.416;   -6.275;  795.342
345.909;   24.595;   -8.815;  627.336
346.505;   27.303;   -5.305;  740.247
347.101;   28.161;   -2.674;  827.864
347.697;   27.463;   -4.344;  785.398
348.293;   22.554;   -9.975;  627.244
348.889;   22.918;   -5.774;  745.914
349.485;   22.340;   -5.004;  688.205
350.081;   23.960;   -4.704;  772.592
350.676;   18.178;   -6.635;  691.606
351.272;   22.522;   -4.504;  809.530
351.868;   22.003;   -3.914;  780.497
352.464;   19.473;   -9.044;  723.932
353.059;   15.737;   -8.314;  646.017
353.655;   19.558;   -7.024;  777.063
354.251;   20.145;   -5.343;  759.845
354.846;   15.160;   -8.604;  740.646
355.442;   12.187;   -6.945;  753.071
356.038;   14.752;   -7.564;  751.708
356.633;   14.947;   -5.814;  728.594
357.229;   12.291;   -7.364;  724.757
357.824;   10.571;   -8.024;  703.600
358.420;   10.153;   -9.384;  679.726
359.015;   10.430;   -5.104;  695.357
359.610;   11.231;   -6.854;  763.920
360.206;    5.021;  -10.185;  603.240
360.801;    8.353;   -7.054;  646.503
361.396;   10.402;   -5.034;  725.975
361.992;    5.825;   -8.284;  668.220
362.587;    2.763;   -8.625;  670.160
363.182;    4.216;   -7.674;  689.631
363.777;    6.141;   -5.164;  738.242
364.372;    5.282;   -8.604;  737.314
364.967;    1.786;   -9.055;  680.744
365.563;    5.855;   -6.114;  815.567
366.158;    2.745;   -5.814;  685.161
366.753;    3.030;   -7.854;  649.263
367.348;    1.922;   -7.804;  746.056
367.942;    1.947;   -7.954;  697.298
368.537;    0.809;   -4.984;  754.245
369.132;    1.081;   -8.564;  703.428
369.727;   -3.143;   -8.855;  638.079
370.322;   -2.060;   -6.245;  580.186
370.917;   -2.571;   -6.425;  710.646
371.511;    1.426;   -6.294;  861.834
372.106;   -3.421;   -7.685;  776.964
372.701;   -5.941;   -7.335;  585.988
373.296;   -0.422;   -4.564;  863.135
373.890;   -4.957;  -10.235;  647.840
374.485;   -7.131;   -7.885;  691.199
375.079;   -3.334;   -7.324;  738.685
375.674;   -1.347;   -3.494;  812.970
376.268;   -6.569;   -8.525;  691.759
376.863;  -12.349;  -10.086;  580.327
377.457;   -5.684;   -7.025;  662.490
378.052;   -7.750;   -3.585;  764.884
378.646;   -9.101;   -7.595;  741.167
379.240;   -9.155;   -8.335;  721.176
379.835;   -7.181;   -5.785;  636.978
380.429;  -10.538;   -4.335;  562.557
381.023;   -9.611;   -6.805;  779.205
381.617;  -12.959;   -9.195;  680.106
382.212;   -8.824;   -6.905;  685.303
382.806;   -8.578;   -3.745;  760.690
383.400;  -11.921;   -7.745;  672.281
383.994;  -13.283;   -9.765;  664.870
384.588;   -8.724;   -6.564;  697.701
385.182;   -8.269;   -5.344;  726.624
385.776;   -9.540;   -8.514;  706.875
386.370;  -12.935;   -9.555;  681.968
386.964;  -11.986;   -8.715;  684.155
387.558;  -10.082;   -6.174;  598.360
388.152;  -13.500;   -8.725;  681.959
388.745;  -11.902;   -7.965;  814.707
389.339;  -10.209;   -5.924;  747.642
389.933;   -9.045;   -5.524;  695.370
390.527;   -9.458;   -7.114;  859.029
391.120;  -16.382;  -10.725;  595.318
391.714;  -14.311;   -8.035;  711.633
392.308;  -10.344;   -3.574;  780.253
392.901;  -13.985;   -7.245;  642.460
393.495;  -16.534;   -9.285;  595.414
394.089;  -13.843;   -5.895;  760.452
394.682;  -14.031;   -4.295;  697.188
395.275;  -14.689;   -9.875;  719.927
395.869;  -16.775;   -8.485;  667.314
396.462;  -14.500;   -7.455;  616.609
397.056;  -10.545;   -5.424;  776.621
397.649;  -15.876;   -6.605;  731.575
398.242;  -12.868;   -8.224;  712.645
398.836;  -11.735;   -7.474;  766.408
399.429;  -12.383;   -7.094;  631.041
400.022;  -16.575;   -9.475;  665.902
400.615;  -14.177;   -7.145;  805.609
401.208;  -12.142;   -7.174;  691.451
401.802;  -14.851;   -5.515;  699.329
402.395;  -15.232;   -9.875;  683.502
402.988;  -17.164;   -8.845;  696.627
403.581;  -12.543;   -8.874;  646.878
404.174;  -10.991;   -5.324;  686.568
404.767;  -13.768;   -9.575;  638.583
405.360;  -16.635;  -10.965;  621.445
405.953;  -11.897;   -8.764;  759.034
406.545;  -11.119;   -7.514;  725.342
407.138;  -15.185;  -10.025;  618.350
407.731;  -13.756;  -10.034;  613.303
408.324;  -10.019;   -9.374;  660.554
408.917;  -10.291;   -6.534;  681.864
409.509;  -12.701;   -8.004;  740.396
410.102;  -14.630;   -9.875;  643.948
410.695;   -8.169;   -8.604;  665.758
411.287;  -10.133;   -6.794;  599.821
411.880;  -10.702;   -9.334;  585.421
412.472;  -13.772;  -10.254;  613.092
413.065;  -11.290;   -6.714;  629.408
413.657;   -8.878;   -7.234;  576.678
414.250;   -8.464;  -10.544;  646.681
414.842;  -10.777;   -9.744;  676.353
415.434;   -8.381;   -6.994;  570.463
416.027;   -4.449;   -5.893;  652.196
416.619;   -6.140;   -7.264;  713.400
417.211;   -7.044;  -10.374;  599.352
417.804;   -3.335;   -7.993;  628.499
418.396;   -7.369;   -7.234;  607.643
418.988;   -5.209;   -9.443;  659.238
419.580;   -8.756;  -10.724;  568.276
420.172;   -5.917;  -10.323;  536.196
420.764;   -1.854;   -8.793;  672.482
421.356;   -2.931;  -11.143;  636.898
421.948;   -4.282;   -8.293;  677.661
422.540;    1.473;   -7.893;  680.027
423.132;    0.367;   -7.082;  600.641
423.724;   -3.080;   -8.653;  561.267
424.316;   -1.730;  -10.213;  621.345
424.908;    2.264;   -9.762;  591.517
425.500;    3.573;   -5.572;  647.978
426.092;    3.660;   -8.422;  648.268
426.683;    2.684;   -9.283;  684.836
427.275;    5.170;   -7.852;  641.471
427.867;    6.854;   -5.272;  668.948
428.458;    7.383;   -7.682;  732.344
429.050;    5.871;  -10.612;  680.749
429.642;    7.850;   -9.882;  743.124
430.233;    8.480;   -6.962;  569.356
430.825;   10.214;   -6.842;  724.809
431.416;    7.045;   -9.672;  698.241
432.008;   11.033;   -6.552;  651.723
432.599;   11.130;   -6.891;  656.073
433.190;    8.411;  -10.912;  637.670
433.782;    7.684;  -11.172;  590.395
434.373;   15.129;   -6.061;  884.765
434.964;   14.060;   -8.251;  602.920
435.556;   11.574;   -9.722;  634.537
436.147;   14.896;   -9.082;  758.490
436.738;   14.889;   -8.041;  701.099
437.329;   19.083;   -7.341;  721.723
437.920;   12.566;   -8.162;  666.688
438.511;   12.308;  -11.802;  564.526
439.103;   18.922;  -10.191;  623.998
439.694;   21.218;   -7.601;  681.583
440.285;   21.372;   -8.541;  764.432
440.876;   19.615;   -9.751;  845.738
441.466;   19.456;   -9.401;  575.162
442.057;   24.766;   -7.760;  665.814
442.648;   22.631;   -9.971;  746.255
443.239;   21.464;  -11.001;  620.477
443.830;   26.093;   -7.990;  704.958
444.421;   28.311;   -7.910;  655.474
445.011;   24.965;   -8.131;  693.619
445.602;   24.755;   -7.111;  743.126
446.193;   26.791;  -10.920;  488.117
446.783;   31.027;   -6.500;  640.397
447.374;   26.437;   -8.671;  692.759
447.964;   27.115;  -10.781;  713.770
448.555;   35.718;   -9.650;  822.742
449.145;   31.516;   -8.660;  662.853
449.736;   32.743;   -8.990;  803.179
450.326;   32.609;   -9.500;  713.626
450.917;   37.909;   -8.680;  675.324
451.507;   36.733;   -7.520;  600.661
452.097;   37.219;   -8.590;  746.267
452.688;   37.751;  -11.340;  742.160
453.278;   37.666;  -10.100;  566.840
453.868;   41.980;   -6.019;  793.550
454.458;   40.460;   -9.440;  651.141
455.048;   40.644;  -10.560;  711.783
455.639;   42.632;  -11.799;  567.096
456.229;   45.896;   -6.899;  710.694
456.819;   47.169;   -7.389;  751.158
457.409;   47.680;  -11.119;  773.993
457.999;   50.457;   -9.289;  737.505
458.589;   50.037;   -6.139;  686.606
459.179;   49.727;   -8.729;  717.658
459.769;   48.774;   -9.789;  627.099
460.358;   53.667;  -10.259;  797.262
460.948;   52.727;   -7.299;  689.503
461.538;   55.238;  -10.289;  660.677
462.128;   53.050;  -11.269;  664.934
462.717;   59.510;   -9.368;  710.326
463.307;   62.399;   -7.908;  705.846
463.897;   58.910;   -9.599;  656.942
464.486;   56.943;   -9.769;  837.128
465.076;   61.814;   -8.048;  733.776
465.666;   65.799;   -9.358;  652.900
466.255;   63.119;   -7.919;  785.651
466.845;   62.599;  -11.689;  666.749
467.434;   65.539;   -7.818;  725.873
468.023;   65.901;   -7.678;  658.357
468.613;   63.888;  -10.939;  713.946
469.202;   68.084;  -10.118;  646.507
469.791;   72.113;   -9.108;  737.811
470.381;   74.187;   -6.058;  742.813
470.970;   74.161;  -10.428;  711.099
471.559;   73.928;  -10.268;  733.291
472.148;   77.068;   -8.448;  675.737
472.738;   79.789;   -6.917;  765.466
473.327;   78.860;  -11.978;  637.529
473.916;   77.993;  -11.888;  737.446
474.505;   82.499;   -9.437;  751.703
475.094;   84.944;   -6.747;  806.570
475.683;   84.969;   -9.367;  797.699
476.272;   85.932;  -12.637;  730.632
476.861;   88.511;  -10.027;  706.754
477.449;   95.465;   -8.716;  728.487
478.038;   89.726;   -9.577;  692.513
478.627;   90.542;   -9.718;  714.852
479.216;   97.204;   -8.947;  769.441
479.805;   99.729;   -6.256;  783.375
480.393;   99.936;   -7.937; 1008.945
480.982;   98.588;   -7.717;  874.501
481.571;  105.025;   -9.266;  858.333
482.159;  105.176;   -7.636;  705.386
482.748;  105.401;   -9.667;  821.385
483.336;  110.600;  -10.376;  858.209
483.925;  110.824;   -7.147;  774.373
484.513;  117.026;   -7.996;  758.962
485.102;  113.584;  -10.027;  810.965
485.690;  122.139;  -10.446; 1011.050
486.278;  124.984;   -8.446;  979.329
486.867;  125.010;   -6.356;  809.662
487.455;  127.121;   -9.136;  898.229
488.043;  127.609;  -10.646;  748.361
488.631;  136.839;   -7.456; 1005.079
489.220;  140.478;   -6.636;  908.626
489.808;  140.709;  -11.036;  741.415
490.396;  148.201;  -10.246;  914.645
490.984;  154.618;   -8.556;  830.161
491.572;  163.202;   -5.886;  940.315
492.160;  170.305;   -9.486;  919.081
492.748;  181.930;  -10.976;  884.341
493.336;  203.764;   -8.776; 1019.693
493.924;  229.629;   -5.465;  958.077
494.512;  258.031;   -9.986; 1066.638
495.100;  294.370;  -10.636; 1103.280
495.687;  346.518;  -10.885; 1206.373
496.275;  405.563;   -8.126; 1150.796
496.863;  468.117;  -10.586; 1281.171
497.451;  562.771;  -11.926; 1386.805
498.038;  696.311;  -10.885; 1556.729
498.626;  801.314;   -6.315; 1741.407
499.214;  938.482;   -7.326; 2016.609
499.801; 1120.357;  -11.906; 2220.633
500.389; 1349.957;  -10.466; 2312.494
500.976; 1652.571;   -5.236; 2744.849
501.564; 2062.259;   -8.936; 3148.565
502.151; 2417.284;  -13.176; 3515.999
502.738; 2829.225;  -10.646; 3971.274
503.326; 3193.852;   -9.525; 4403.796
503.913; 3556.334;  -10.856; 5161.749
504.500; 3863.983;  -11.586; 5986.420
505.088; 4276.635;  -10.336; 6381.201
505.675; 4799.530;   -6.355; 6925.547
506.262; 5389.461;   -9.046; 7619.060
506.849; 6066.216;  -10.416; 8733.969
507.436; 6543.500;  -10.305; 9790.121
508.023; 7091.028;   -5.496; 9985.472
508.610; 7331.077;   -7.856;10434.618
509.197; 7926.356;  -10.097;11198.435
509.784; 9234.113;  -10.886;12391.194
510.371;10276.441;   -9.315;13603.713
510.958;10984.534;   -9.936;14426.586
511.545;11668.491;   -9.326;15243.775
512.132;12543.403;  -10.075;15945.876
512.719;13083.192;   -7.796;16340.369
513.305;14053.095;  -10.606;18011.766
513.892;14793.093;  -11.486;19754.971
514.479;16023.684;   -9.126;20967.805
515.066;17443.152;   -6.026;22299.793
515.652;18620.492;   -8.466;22908.660
516.239;19803.918;  -10.886;23798.875
516.825;20837.625;  -11.496;25567.275
517.412;21874.385;   -5.796;28154.959
517.998;22693.893;  -10.506;28344.111
518.585;22745.719;  -10.076;27134.219
519.171;23044.678;   -8.315;27268.576
519.758;24358.188;   -8.596;28964.129
520.344;26214.428;   -8.466;30664.494
520.930;26449.986;  -11.006;32550.605
521.516;27838.648;  -10.495;35422.895
522.103;30187.340;   -5.526;38280.004
522.689;31038.717;   -8.746;37835.117
523.275;30729.879;  -11.376;37288.613
523.861;31751.840;  -11.156;37281.395
524.447;33067.813;   -8.135;37846.949
525.033;32554.270;   -7.896;38321.949
525.619;32720.900;  -12.476;38579.285
526.205;34179.770;   -9.516;40622.875
526.791;37121.750;   -6.926;42258.836
527.377;37183.848;   -8.346;42966.902
527.963;38682.879;   -8.717;42018.949
528.549;37824.621;  -11.016;42476.828
529.135;36475.727;   -8.536;41854.852
529.721;35814.762;   -9.666;41237.711
530.306;35449.594;  -10.066;41259.445
530.892;35419.387;  -11.356;41506.047
531.478;36589.699;   -6.596;43559.613
532.063;39149.117;   -8.836;47695.563
532.649;39648.523;  -10.047;50808.324
533.235;40646.637;   -9.746;51787.500
533.820;41808.617;   -6.566;52145.035
534.406;42850.176;  -10.817;51133.488
534.991;42487.809;   -9.416;49996.805
535.576;41052.277;   -9.036;48882.852
536.162;41693.207;   -6.156;46942.285
536.747;42963.992;  -11.607;45711.746
537.333;46172.551;  -11.787;48510.180
537.918;49230.617;  -12.437;50439.891
538.503;48036.465;   -7.196;50863.711
539.088;44935.434;  -10.556;50906.922
539.673;45229.031;   -8.767;52621.965
540.259;44941.457;  -10.026;52368.094
540.844;42228.965;   -7.416;50879.109
541.429;43240.430;   -9.467;52077.777
542.014;46430.867;   -9.527;52716.695
542.599;46315.719;   -9.946;52363.281
543.184;43368.672;   -7.927;53187.137
543.769;44443.152;   -9.297;54697.605
544.354;44376.141;  -10.127;53913.914
544.938;43353.711;   -9.267;49680.164
545.523;45350.395;   -6.506;47386.277
546.108;47396.293;   -9.787;49151.949
546.693;49581.145;  -11.587;51384.637
547.278;49791.445;  -10.986;51853.254
547.862;46855.590;   -8.206;51173.750
548.447;42492.504;  -10.067;51691.395
549.031;41597.473;   -9.637;52456.703
549.616;46135.367;   -9.926;52714.516
550.201;45477.938;   -6.347;52414.598
550.785;46349.137;   -7.917;52355.059
551.370;45783.574;  -10.867;54589.453
551.954;45858.668;   -9.047;58267.348
552.538;47172.035;   -7.827;59062.176
553.123;45388.188;  -10.287;58115.285
553.707;42921.289;  -12.178;56556.285
554.291;43577.000;   -8.717;56201.668
554.876;45593.660;   -7.457;55335.762
555.460;46367.902;  -10.387;54155.703
556.044;48038.926;   -9.618;53721.484
556.628;46196.242;  -11.567;53731.016
557.212;44815.090;   -8.097;54312.531
557.796;42858.363;  -11.077;53797.773
558.380;43068.512;  -11.108;56145.984
558.964;44100.578;   -9.057;57277.930
559.548;44987.215;   -6.977;56459.641
560.132;42677.043;  -11.457;54434.543
560.716;41572.207;  -11.378;54800.617
561.300;42572.785;   -9.577;57606.945
561.884;43516.508;   -7.127;58972.445
562.467;42183.461;   -7.118;57327.570
563.051;41754.188;  -13.358;54962.434
563.635;42669.711;  -10.178;52594.473
564.219;43085.703;   -7.837;50610.410
564.802;43631.004;  -11.398;49551.180
565.386;43756.559;  -12.788;48370.953
565.969;43619.496;   -9.077;48178.871
566.553;42375.277;   -6.207;49957.305
567.136;42596.352;   -8.568;50369.594
567.720;39072.715;  -11.868;49492.004
568.303;37220.871;   -8.268;50616.352
568.887;37058.543;   -8.698;50727.148
569.470;37283.578;   -6.808;51698.379
570.053;36616.344;  -13.188;52122.078
570.637;34880.727;  -12.037;52536.438
571.220;34247.438;   -8.577;51186.098
571.803;34572.938;   -8.498;51032.762
572.386;36624.281;  -10.498;49609.887
572.969;39231.164;   -9.388;48285.926
573.552;37580.391;   -8.338;47624.285
574.135;36236.285;   -8.518;45498.641
574.718;33773.348;  -13.628;41970.434
575.301;32285.646;  -10.893;41447.137
575.884;30797.945;   -8.158;40923.836
576.467;31043.824;  -10.328;45267.723
577.050;32511.479;  -13.058;48175.543
577.633;34720.273;   -9.458;47729.328
578.216;34938.367;   -8.928;47579.793
578.799;34659.379;   -9.358;47820.996
579.381;33689.926;  -11.388;48115.551
579.964;32109.043;  -11.718;47333.766
580.547;33440.645;   -8.588;46668.969
581.129;34113.102;   -8.859;44466.141
581.712;34618.016;  -10.729;44164.922
582.294;35242.484;  -11.118;46477.855
582.877;35576.266;   -5.218;48244.254
583.459;33607.680;   -8.679;47437.895
584.042;31713.566;  -10.709;46943.219
584.624;31929.002;  -11.669;46792.227
585.206;31449.068;   -8.218;46557.250
585.789;31584.219;  -10.569;45793.773
586.371;34230.828;  -11.859;43836.391
586.953;34889.035;  -10.719;42972.492
587.536;35523.664;   -7.198;42487.211
588.118;35614.465;   -8.720;42086.414
588.700;31819.910;  -10.439;43389.930
589.282;30323.326;   -9.198;43646.039
589.864;29732.988;   -9.199;43438.109
590.446;29066.928;  -11.319;43151.926
591.028;27878.111;  -11.159;42781.867
591.610;27979.422;  -11.779;42839.098
592.192;27841.191;   -7.668;42820.402
592.774;27956.182;  -11.949;40724.277
593.356;27597.104;  -12.129;39874.789
593.937;27292.625;  -10.669;39980.648
594.519;29438.553;   -6.509;42069.633
595.101;31694.248;  -10.849;42976.031
