source_left
Integration time [ms]: 300.000
Averaging Nr. [scans]: 30
Smoothing Nr. [pixels]: 0
Data measured with spectrometer [name]: 7414430SP
Wave   ;Sample   ;Dark     ;Reference
[nm]   ;[counts] ;[counts] ;[counts] 

288.544;  510.281;  409.495;    6.613
289.143;  432.987;  334.741;   14.216
289.742;  542.143;  438.471;   11.816
290.341;  511.732;  418.127;   -4.936
290.940;  465.986;  374.571;    0.852
291.538;  572.029;  486.444;    1.792
292.137;  514.206;  414.837;    6.262
292.736;  638.232;  548.261;    8.164
293.335;  469.743;  380.904;   -6.418
293.934;  499.869;  413.615;   -2.904
294.532;  683.538;  601.463;   -5.162
295.131;  540.007;  463.325;  -10.283
295.730;  525.598;  447.004;  -16.141
296.328;  506.266;  435.754;  -14.740
296.927;  501.903;  428.130;   -8.768
297.525;  501.439;  423.459;  -15.255
298.124;  407.966;  340.248;  -22.063
298.722;  492.816;  419.149;  -14.796
299.321;  452.239;  377.482;  -10.466
299.919;  476.481;  410.080;  -10.979
300.518;  440.373;  368.337;  -12.077
301.116;  440.369;  370.383;  -13.509
301.715;  468.712;  390.100;  -11.939
302.313;  459.540;  382.345;  -15.424
302.911;  473.890;  409.207;  -19.833
303.509;  609.170;  543.847;   -3.567
304.108;  498.175;  423.019;   -9.553
304.706;  525.542;  452.293;   -8.582
305.304;  521.883;  460.774;  -12.348
305.902;  512.943;  441.800;  -14.411
306.500;  474.586;  404.342;   -7.194
307.098;  490.899;  424.328;   -9.322
307.696;  507.933;  457.530;  -19.192
308.294;  482.217;  419.528;   -9.736
308.892;  504.687;  441.888;  -15.482
309.490;  458.861;  397.807;  -14.107
310.088;  521.201;  463.266;  -15.862
310.686;  542.400;  480.333;  -10.781
311.284;  509.293;  445.100;  -14.878
311.882;  480.150;  422.933;   -9.948
312.480;  451.889;  400.225;  -15.503
313.078;  539.145;  475.435;  -17.262
313.675;  454.619;  394.542;   -3.694
314.273;  538.564;  482.288;  -18.246
314.871;  385.992;  328.213;  -15.190
315.468;  429.756;  369.507;  -12.633
316.066;  463.396;  402.504;   -5.765
316.664;  432.885;  380.819;  -14.317
317.261;  613.350;  553.581;   -8.677
317.859;  518.787;  465.282;  -11.804
318.456;  557.450;  506.913;   -3.107
319.054;  524.312;  472.927;   -3.062
319.651;  503.685;  461.622;   -6.706
320.249;  540.218;  496.555;   -5.206
320.846;  471.826;  426.783;   -4.679
321.443;  562.180;  514.791;   -7.920
322.041;  540.642;  499.737;  -14.105
322.638;  467.644;  424.051;   -6.263
323.235;  439.107;  394.945;   -7.424
323.833;  499.473;  451.307;  -14.765
324.430;  403.380;  353.447;  -10.550
325.027;  597.622;  544.441;   -9.951
325.624;  428.775;  367.891;   -3.712
326.221;  463.347;  398.524;   -9.368
326.818;  563.693;  500.113;   -5.637
327.415;  513.067;  435.885;   -6.699
328.012;  471.006;  386.964;   -5.713
328.609;  499.762;  424.864;   -9.983
329.206;  539.563;  454.999;   -7.154
329.803;  506.776;  417.719;   -1.682
330.400;  483.187;  389.434;   -2.741
330.997;  556.957;  468.961;   -4.339
331.594;  541.638;  450.395;  -10.278
332.191;  498.725;  403.452;   -6.967
332.787;  572.134;  483.017;   -0.480
333.384;  515.189;  428.015;  -10.333
333.981;  548.173;  466.840;  -19.900
334.578;  481.088;  383.913;  -19.816
335.174;  486.612;  399.076;  -15.844
335.771;  561.874;  482.567;  -12.670
336.367;  481.082;  393.669;  -21.124
336.964;  547.912;  453.616;  -18.226
337.561;  493.352;  406.390;  -13.311
338.157;  612.560;  537.645;  -19.006
338.754;  536.224;  465.774;  -19.418
339.350;  485.241;  404.223;  -29.433
339.946;  520.852;  442.621;  -16.622
340.543;  566.253;  495.432;  -16.744
341.139;  480.024;  410.435;  -21.841
341.735;  527.557;  452.920;  -25.012
342.332;  467.563;  394.848;  -19.156
342.928;  536.600;  465.203;  -20.443
343.524;  518.496;  446.876;  -14.397
344.120;  503.078;  432.262;  -20.654
344.716;  487.136;  413.833;   -5.730
345.313;  541.647;  480.927;  -10.929
345.909;  409.066;  342.011;  -19.843
346.505;  507.318;  436.364;  -19.645
347.101;  559.792;  490.958;   -9.618
347.697;  539.072;  467.365;  -10.305
348.293;  420.958;  344.251;  -23.189
348.889;  511.069;  438.836;  -18.418
349.485;  464.248;  384.594;  -10.476
350.081;  533.144;  454.803;  -17.320
350.676;  471.870;  395.638;  -21.088
351.272;  556.120;  474.538;  -12.821
351.868;  525.537;  454.235;  -13.165
352.464;  497.750;  419.565;  -12.464
353.059;  445.169;  371.751;  -22.547
353.655;  540.678;  462.550;   -9.379
354.251;  522.402;  445.226;   -8.266
354.846;  506.616;  434.234;  -17.705
355.442;  513.749;  439.506;   -9.317
356.038;  510.434;  437.316;  -11.049
356.633;  504.381;  423.492;  -10.006
357.229;  496.622;  425.098;  -13.120
357.824;  486.915;  410.071;  -15.647
358.420;  458.162;  388.980;  -19.204
359.015;  472.108;  398.905;  -12.263
359.610;  533.109;  455.161;  -16.421
360.206;  405.941;  339.469;  -20.074
360.801;  432.369;  368.207;  -13.277
361.396;  507.619;  425.487;   -5.822
361.992;  452.648;  388.404;  -11.247
362.587;  450.388;  385.521;  -21.502
363.182;  472.021;  399.301;   -7.461
363.777;  509.034;  436.726;   -8.719
364.372;  507.022;  439.716;  -14.590
364.967;  461.618;  397.056;  -15.145
365.563;  553.686;  487.956;   -7.192
366.158;  469.786;  399.566;   -5.662
366.753;  441.224;  374.929;   -8.378
367.348;  510.334;  442.336;  -14.990
367.942;  474.172;  403.765;   -6.005
368.537;  517.374;  450.125;  -11.504
369.132;  481.127;  411.847;  -10.576
369.727;  437.487;  370.647;  -12.573
370.322;  401.389;  329.318;  -11.560
370.917;  490.736;  422.304;  -10.388
371.511;  594.021;  526.876;   -9.161
372.106;  537.418;  477.156;  -10.245
372.701;  400.993;  333.029;  -10.158
373.296;  590.256;  531.224;   -4.719
373.890;  440.788;  378.521;  -11.802
374.485;  475.047;  420.279;  -13.500
375.079;  512.327;  450.906;   -6.276
375.674;  567.192;  500.215;   -0.447
376.268;  471.272;  416.988;   -6.916
376.863;  391.111;  339.418;  -14.483
377.457;  453.086;  401.520;   -6.903
378.052;  522.931;  466.935;   -9.844
378.646;  507.445;  457.469;  -12.601
379.240;  497.052;  443.092;  -14.715
379.835;  437.277;  383.209;  -12.331
380.429;  384.742;  326.727;   -9.074
381.023;  541.293;  486.447;   -1.729
381.617;  464.721;  412.160;  -13.714
382.212;  464.023;  421.010;   -7.060
382.806;  517.919;  474.220;   -2.303
383.400;  456.730;  415.320;   -0.815
383.994;  452.504;  409.675;   -4.429
384.588;  472.344;  433.890;   -6.261
385.182;  499.553;  451.715;    0.008
385.776;  488.637;  444.976;   -3.247
386.370;  467.246;  425.010;   -1.030
386.964;  465.849;  428.755;   -1.346
387.558;  410.789;  358.906;   -2.020
388.152;  466.307;  426.062;   -5.345
388.745;  555.752;  525.538;   -2.774
389.339;  517.366;  484.952;    3.510
389.933;  470.499;  435.917;    5.280
390.527;  593.123;  556.134;    2.610
391.120;  400.964;  367.345;   -7.914
391.714;  482.865;  450.473;   -1.903
392.308;  536.626;  501.397;    6.023
392.901;  440.042;  405.276;   -4.103
393.495;  402.073;  373.438;    3.284
394.089;  527.629;  492.192;    8.655
394.682;  474.348;  449.791;    2.312
395.275;  494.666;  466.091;   -7.402
395.869;  455.122;  425.698;   -1.072
396.462;  417.917;  391.306;    6.454
397.056;  535.904;  500.706;    8.494
397.649;  504.689;  479.805;    1.599
398.242;  486.593;  462.999;    3.153
398.836;  527.061;  498.021;   11.395
399.429;  433.417;  400.852;   14.695
400.022;  447.766;  432.501;    3.627
400.615;  559.883;  538.132;    8.383
401.208;  471.894;  446.863;   13.295
401.802;  474.969;  454.579;    6.211
402.395;  466.066;  447.734;    7.227
402.988;  466.524;  451.215;    2.700
403.581;  436.816;  413.103;   11.225
404.174;  476.335;  453.490;   18.922
404.767;  438.222;  415.270;   14.169
405.360;  416.112;  400.695;    8.999
405.953;  514.242;  490.897;   13.138
406.545;  494.973;  476.388;   13.937
407.138;  414.266;  394.439;   10.869
407.731;  418.009;  400.391;   12.768
408.324;  443.021;  427.127;   22.921
408.917;  458.953;  443.448;   15.308
409.509;  498.566;  493.496;   12.239
410.102;  434.714;  419.217;   13.741
410.695;  449.986;  431.403;   20.249
411.287;  401.646;  386.549;   21.793
411.880;  392.160;  381.535;   22.965
412.472;  407.003;  402.894;   15.082
413.065;  426.181;  413.469;   23.423
413.657;  386.939;  371.883;   21.077
414.250;  433.085;  420.377;   12.349
414.842;  449.046;  441.751;   20.423
415.434;  373.116;  370.604;   19.906
416.027;  434.922;  421.460;   26.574
416.619;  480.704;  469.417;   15.705
417.211;  395.510;  385.081;   17.791
417.804;  414.889;  402.209;   30.244
418.396;  402.517;  399.311;   24.177
418.988;  435.379;  430.319;   24.904
419.580;  373.868;  367.521;   20.692
420.172;  349.581;  353.384;   22.275
420.764;  452.921;  439.276;   26.773
421.356;  418.119;  416.954;   25.731
421.948;  447.859;  451.479;   24.876
422.540;  449.542;  448.554;   30.042
423.132;  391.314;  389.159;   32.728
423.724;  362.027;  364.076;   21.317
424.316;  406.883;  401.037;   29.359
424.908;  383.925;  384.026;   28.798
425.500;  428.407;  420.493;   30.512
426.092;  420.317;  415.597;   26.741
426.683;  455.949;  455.610;   27.029
427.275;  424.571;  418.767;   32.611
427.867;  438.477;  436.346;   33.796
428.458;  481.796;  475.212;   34.453
429.050;  449.799;  448.830;   34.255
429.642;  491.028;  490.604;   39.082
430.233;  358.690;  356.763;   41.138
430.825;  483.727;  482.287;   31.581
431.416;  457.388;  457.128;   35.755
432.008;  425.054;  411.713;   40.566
432.599;  422.582;  421.497;   46.322
433.190;  416.035;  410.745;   46.897
433.782;  376.047;  379.813;   41.069
434.373;  590.711;  589.623;   48.778
434.964;  384.266;  379.395;   50.078
435.556;  408.338;  405.856;   52.381
436.147;  492.382;  493.316;   38.251
436.738;  450.976;  455.759;   47.237
437.329;  469.427;  462.759;   61.304
437.920;  429.805;  429.359;   48.611
438.511;  354.660;  358.172;   44.910
439.103;  388.961;  394.743;   62.404
439.694;  441.594;  435.667;   63.075
440.285;  495.082;  497.775;   61.033
440.876;  558.034;  554.861;   57.249
441.466;  359.018;  355.217;   61.306
442.057;  421.313;  421.853;   65.773
442.648;  483.263;  479.009;   65.676
443.239;  392.171;  391.774;   55.963
443.830;  458.522;  447.867;   69.631
444.421;  414.601;  409.282;   69.943
445.011;  439.891;  440.130;   72.791
445.602;  473.166;  475.218;   68.848
446.193;  288.393;  289.880;   80.044
446.783;  400.707;  390.851;   82.599
447.374;  438.810;  440.444;   77.419
447.964;  451.117;  446.408;   72.605
448.555;  527.620;  527.827;   82.041
449.145;  423.498;  411.627;   76.230
449.736;  517.971;  512.600;   75.545
450.326;  456.216;  451.236;   67.945
450.917;  427.138;  415.408;   77.598
451.507;  371.304;  362.493;   68.027
452.097;  475.710;  473.860;   67.771
452.688;  467.602;  462.279;   62.884
453.278;  338.022;  338.493;   65.512
453.868;  505.625;  503.912;   71.796
454.458;  401.770;  394.953;   60.956
455.048;  443.549;  437.873;   62.356
455.639;  343.786;  334.515;   58.782
456.229;  444.661;  440.675;   65.209
456.819;  468.824;  466.677;   61.466
457.409;  486.992;  481.128;   59.967
457.999;  459.175;  449.881;   58.093
458.589;  421.890;  417.908;   59.536
459.179;  449.277;  437.091;   55.994
459.769;  371.934;  372.249;   43.624
460.358;  503.814;  488.228;   46.978
460.948;  425.596;  408.154;   49.821
461.538;  400.003;  391.000;   54.678
462.128;  400.627;  396.875;   49.309
462.717;  430.496;  423.321;   52.774
463.307;  435.637;  423.256;   48.101
463.897;  396.534;  384.542;   45.606
464.486;  530.462;  524.293;   45.010
465.076;  451.913;  441.649;   45.519
465.666;  389.011;  374.268;   50.058
466.255;  483.629;  474.393;   44.463
466.845;  398.878;  387.211;   41.206
467.434;  444.100;  424.688;   44.847
468.023;  386.103;  377.718;   46.760
468.613;  426.757;  422.941;   39.736
469.202;  378.259;  369.407;   46.461
469.791;  450.850;  429.932;   47.944
470.381;  451.234;  434.973;   47.529
470.970;  424.794;  406.861;   43.773
471.559;  439.042;  428.056;   41.646
472.148;  393.850;  379.588;   37.914
472.738;  461.446;  441.906;   48.071
473.327;  366.358;  347.159;   47.871
473.916;  437.065;  427.635;   37.716
474.505;  448.651;  434.219;   40.256
475.094;  491.520;  471.223;   43.269
475.683;  476.088;  454.217;   36.499
476.272;  427.392;  416.541;   44.542
476.861;  408.151;  387.399;   42.297
477.449;  426.562;  400.102;   46.878
478.038;  393.274;  375.742;   35.156
478.627;  413.839;  393.394;   42.514
479.216;  446.973;  421.384;   43.937
479.805;  455.568;  429.150;   51.393
480.393;  619.343;  593.969;   53.239
480.982;  521.273;  503.699;   38.955
481.571;  508.170;  481.123;   45.436
482.159;  388.194;  365.728;   51.007
482.748;  482.249;  456.530;   49.695
483.336;  503.286;  472.134;   48.280
483.925;  441.594;  414.107;   47.166
484.513;  424.478;  396.464;   55.404
485.102;  460.164;  427.957;   54.238
485.690;  592.283;  564.805;   55.748
486.278;  569.834;  545.971;   55.934
486.867;  446.836;  418.355;   57.106
487.455;  510.040;  484.255;   56.979
488.043;  392.680;  364.352;   57.564
488.631;  576.498;  544.670;   57.432
489.220;  508.446;  467.920;   63.646
489.808;  376.674;  347.078;   65.449
490.396;  495.604;  466.870;   61.977
490.984;  427.389;  392.002;   68.834
491.572;  498.635;  463.968;   70.775
492.160;  474.080;  446.152;   67.564
492.748;  433.928;  405.612;   66.808
493.336;  513.903;  478.001;   79.747
493.924;  449.392;  404.945;   88.688
494.512;  502.574;  467.227;   84.120
495.100;  495.564;  463.219;   86.250
495.687;  517.277;  481.836;  103.074
496.275;  425.370;  384.150;  108.717
496.863;  435.525;  404.803;  107.035
497.451;  432.011;  398.294;  117.993
498.038;  461.667;  423.756;  120.116
498.626;  447.749;  410.875;  143.059
499.214;  476.200;  439.271;  153.434
499.801;  454.109;  425.344;  175.121
500.389;  380.358;  350.829;  185.617
500.976;  486.860;  442.021;  215.789
501.564;  458.164;  426.642;  240.321
502.151;  332.716;  296.059;  267.007
502.738;  440.052;  401.601;  317.961
503.326;  457.312;  407.992;  361.216
503.913;  476.254;  432.559;  401.433
504.500;  482.921;  443.554;  446.492
505.088;  409.955;  373.728;  512.063
505.675;  452.036;  409.822;  586.387
506.262;  453.232;  406.392;  671.021
506.849;  457.953;  419.819;  759.062
507.436;  518.570;  477.106;  849.788
508.023;  462.726;  416.429;  944.288
508.610;  504.196;  461.389; 1020.690
509.197;  488.211;  446.115; 1089.052
509.784;  460.281;  421.247; 1133.776
510.371;  387.017;  344.805; 1165.501
510.958;  464.713;  428.742; 1251.735
511.545;  534.828;  495.766; 1350.248
512.132;  471.077;  414.552; 1525.945
512.719;  415.488;  367.793; 1834.933
513.305;  426.351;  376.622; 1965.349
513.892;  533.003;  490.642; 1963.265
514.479;  477.213;  430.353; 2046.446
515.066;  526.588;  478.374; 2252.803
515.652;  480.847;  427.304; 2567.247
516.239;  503.395;  456.707; 2636.919
516.825;  399.934;  358.595; 2482.304
517.412;  600.685;  545.991; 2427.031
517.998;  460.078;  407.151; 2540.463
518.585;  449.750;  402.625; 2609.007
519.171;  480.992;  432.545; 2842.088
519.758;  407.176;  351.321; 3090.703
520.344;  515.214;  463.514; 3176.076
520.930;  424.839;  374.466; 3295.037
521.516;  498.827;  447.977; 3500.959
522.103;  558.345;  492.264; 3736.704
522.689;  451.366;  400.951; 3971.022
523.275;  533.273;  480.038; 4213.778
523.861;  472.098;  411.788; 4190.361
524.447;  523.730;  469.742; 4070.602
525.033;  531.310;  484.410; 4088.892
525.619;  435.076;  379.280; 4416.851
526.205;  421.624;  361.911; 4836.835
526.791;  463.721;  401.416; 4885.903
527.377;  451.828;  391.487; 4544.907
527.963;  483.481;  431.280; 4321.995
528.549;  492.574;  437.447; 4473.979
529.135;  440.477;  382.725; 4788.663
529.721;  478.027;  420.218; 4888.577
530.306;  637.607;  580.947; 4775.779
530.892;  457.681;  395.249; 4793.906
531.478;  456.616;  389.046; 4956.948
532.063;  432.281;  368.426; 5136.936
532.649;  584.884;  522.196; 5336.867
533.235;  440.333;  377.000; 5748.092
533.820;  546.222;  482.790; 6456.875
534.406;  469.128;  409.399; 6590.167
534.991;  438.477;  377.820; 6179.622
535.576;  478.910;  411.785; 6098.691
536.162;  651.168;  584.963; 6441.234
536.747;  421.515;  356.157; 6816.224
537.333;  443.468;  376.896; 6889.752
537.918;  484.865;  412.087; 7154.280
538.503;  459.483;  388.705; 7150.848
539.088;  508.707;  436.665; 7253.308
539.673;  475.087;  407.318; 7625.180
540.259;  456.722;  383.364; 8226.793
540.844;  407.977;  336.610; 8745.092
541.429;  592.736;  519.480; 8762.553
542.014;  423.763;  350.519; 8871.497
542.599;  509.328;  435.412; 8886.008
543.184;  439.386;  356.454; 9079.139
543.769;  458.379;  383.817; 9076.182
544.354;  477.289;  395.094; 8354.081
544.938;  516.686;  437.052; 8236.809
545.523;  597.218;  512.791; 8222.179
546.108;  498.223;  415.345; 8114.082
546.693;  498.225;  413.231; 8535.912
547.278;  509.400;  413.668; 9238.322
547.862;  509.114;  408.157; 9034.405
548.447;  565.834;  462.999; 7795.011
549.031;  495.633;  404.079; 7485.099
549.616;  535.729;  435.463; 7626.308
550.201;  504.675;  393.375; 7627.909
550.785;  560.249;  449.341; 7859.125
551.370;  473.583;  359.017; 7990.654
551.954;  577.142;  467.270; 8196.468
552.538;  574.260;  457.008; 7959.495
553.123;  512.373;  384.555; 7964.826
553.707;  525.176;  400.284; 8515.957
554.291;  626.260;  489.018; 8724.024
554.876;  607.579;  460.260; 8524.211
555.460;  535.618;  384.052; 8704.456
556.044;  541.038;  387.855; 9141.473
556.628;  571.897;  417.244; 9250.197
557.212;  655.383;  479.461; 9444.237
557.796;  590.648;  405.744; 9379.783
558.380;  624.022;  434.930; 9353.658
558.964;  630.543;  421.226; 9210.310
559.548;  575.569;  353.821; 8475.153
560.132;  627.517;  397.378; 7954.084
560.716;  605.212;  363.734; 7489.529
561.300;  626.601;  357.771; 7211.952
561.884;  728.203;  449.167; 7141.313
562.467;  739.953;  445.272; 7155.386
563.051;  724.532;  417.174; 7323.158
563.635;  747.672;  401.327; 7709.114
564.219;  790.817;  414.401; 7678.855
564.802;  849.009;  443.494; 7376.187
565.386;  855.103;  421.879; 7054.372
565.969;  965.973;  490.012; 6589.196
566.553; 1045.013;  538.506; 6279.371
567.136; 1035.846;  479.126; 5967.930
567.720; 1036.050;  420.827; 5660.703
568.303; 1111.418;  435.839; 5648.615
568.887; 1145.193;  420.625; 5618.443
569.470; 1225.798;  434.505; 5411.875
570.053; 1270.919;  461.885; 5149.274
570.637; 1230.509;  379.297; 5122.798
571.220; 1368.977;  464.538; 4957.369
571.803; 1534.146;  541.031; 4933.018
572.386; 1530.817;  395.375; 4840.973
572.969; 1629.141;  404.785; 4592.886
573.552; 1745.720;  408.464; 4348.387
574.135; 1760.959;  381.817; 4002.290
574.718; 1792.961;  389.178; 3654.773
575.301; 2000.690;  385.145; 3502.288
575.884; 2208.418;  381.111; 3349.803
576.467; 2527.050;  478.927; 3191.403
577.050; 2673.145;  428.239; 3062.418
577.633; 2952.624;  519.252; 3214.200
578.216; 3068.291;  403.683; 3284.889
578.799; 3241.378;  404.034; 3189.777
579.381; 3612.094;  541.163; 3064.502
579.964; 3789.076;  385.784; 2888.357
580.547; 4201.493;  428.540; 2905.760
581.129; 4489.570;  497.348; 2966.849
581.712; 4641.796;  447.028; 2887.292
582.294; 5038.438;  420.025; 2771.631
582.877; 5595.660;  539.038; 2711.602
583.459; 5614.271;  414.466; 2577.049
584.042; 5789.134;  408.667; 2454.707
584.624; 6340.841;  379.923; 2305.893
585.206; 6980.476;  326.348; 2189.546
585.789; 7511.257;  391.946; 2112.577
586.371; 7433.934;  441.495; 2153.065
586.953; 7478.044;  465.752; 2197.806
587.536; 7860.957;  495.483; 2105.489
588.118; 8598.364;  411.286; 1963.911
588.700; 9847.938;  503.076; 1843.179
589.282;10488.675;  447.902; 1813.834
589.864;10629.761;  420.445; 1777.620
590.446;10710.951;  329.246; 1733.780
591.028;11423.537;  425.227; 1676.008
591.610;11873.870;  342.207; 1631.649
592.192;12568.540;  430.570; 1632.362
592.774;12831.413;  365.246; 1569.507
593.356;13269.206;  392.805; 1524.539
593.937;13228.648;  383.391; 1569.720
594.519;14284.025;  481.979; 1569.049
595.101;15158.776;  348.094; 1545.452
