source_left
Integration time [ms]: 300.000
Averaging Nr. [scans]: 30
Smoothing Nr. [pixels]: 0
Data measured with spectrometer [name]: 7414430SP
Wave   ;Sample   ;Dark     ;Reference
[nm]   ;[counts] ;[counts] ;[counts] 

288.544;  513.138;  409.495;    6.613
289.143;  441.948;  334.741;   14.216
289.742;  537.513;  438.471;   11.816
290.341;  516.383;  418.127;   -4.936
290.940;  474.366;  374.571;    0.852
291.538;  575.256;  486.444;    1.792
292.137;  512.578;  414.837;    6.262
292.736;  651.083;  548.261;    8.164
293.335;  479.139;  380.904;   -6.418
293.934;  508.494;  413.615;   -2.904
294.532;  694.713;  601.463;   -5.162
295.131;  551.506;  463.325;  -10.283
295.730;  536.723;  447.004;  -16.141
296.328;  512.279;  435.754;  -14.740
296.927;  514.935;  428.130;   -8.768
297.525;  508.002;  423.459;  -15.255
298.124;  426.327;  340.248;  -22.063
298.722;  497.797;  419.149;  -14.796
299.321;  453.904;  377.482;  -10.466
299.919;  489.567;  410.080;  -10.979
300.518;  452.805;  368.337;  -12.077
301.116;  448.628;  370.383;  -13.509
301.715;  475.232;  390.100;  -11.939
302.313;  460.566;  382.345;  -15.424
302.911;  479.395;  409.207;  -19.833
303.509;  619.891;  543.847;   -3.567
304.108;  495.409;  423.019;   -9.553
304.706;  523.652;  452.293;   -8.582
305.304;  533.670;  460.774;  -12.348
305.902;  517.028;  441.800;  -14.411
306.500;  478.538;  404.342;   -7.194
307.098;  491.933;  424.328;   -9.322
307.696;  516.008;  457.530;  -19.192
308.294;  478.219;  419.528;   -9.736
308.892;  496.015;  441.888;  -15.482
309.490;  456.567;  397.807;  -14.107
310.088;  524.517;  463.266;  -15.862
310.686;  543.468;  480.333;  -10.781
311.284;  507.525;  445.100;  -14.878
311.882;  477.131;  422.933;   -9.948
312.480;  456.547;  400.225;  -15.503
313.078;  539.452;  475.435;  -17.262
313.675;  447.838;  394.542;   -3.694
314.273;  528.068;  482.288;  -18.246
314.871;  382.209;  328.213;  -15.190
315.468;  424.695;  369.507;  -12.633
316.066;  454.630;  402.504;   -5.765
316.664;  425.996;  380.819;  -14.317
317.261;  605.479;  553.581;   -8.677
317.859;  507.729;  465.282;  -11.804
318.456;  553.604;  506.913;   -3.107
319.054;  514.580;  472.927;   -3.062
319.651;  500.755;  461.622;   -6.706
320.249;  537.255;  496.555;   -5.206
320.846;  465.702;  426.783;   -4.679
321.443;  554.642;  514.791;   -7.920
322.041;  542.076;  499.737;  -14.105
322.638;  455.795;  424.051;   -6.263
323.235;  431.233;  394.945;   -7.424
323.833;  484.765;  451.307;  -14.765
324.430;  392.329;  353.447;  -10.550
325.027;  579.846;  544.441;   -9.951
325.624;  409.877;  367.891;   -3.712
326.221;  447.765;  398.524;   -9.368
326.818;  543.931;  500.113;   -5.637
327.415;  485.342;  435.885;   -6.699
328.012;  440.636;  386.964;   -5.713
328.609;  471.710;  424.864;   -9.983
329.206;  507.651;  454.999;   -7.154
329.803;  473.313;  417.719;   -1.682
330.400;  448.288;  389.434;   -2.741
330.997;  525.729;  468.961;   -4.339
331.594;  509.588;  450.395;  -10.278
332.191;  460.528;  403.452;   -6.967
332.787;  540.324;  483.017;   -0.480
333.384;  480.667;  428.015;  -10.333
333.981;  521.292;  466.840;  -19.900
334.578;  441.803;  383.913;  -19.816
335.174;  454.339;  399.076;  -15.844
335.771;  525.295;  482.567;  -12.670
336.367;  445.461;  393.669;  -21.124
336.964;  509.859;  453.616;  -18.226
337.561;  461.523;  406.390;  -13.311
338.157;  589.117;  537.645;  -19.006
338.754;  504.978;  465.774;  -19.418
339.350;  456.774;  404.223;  -29.433
339.946;  483.397;  442.621;  -16.622
340.543;  537.434;  495.432;  -16.744
341.139;  447.559;  410.435;  -21.841
341.735;  490.611;  452.920;  -25.012
342.332;  426.953;  394.848;  -19.156
342.928;  497.982;  465.203;  -20.443
343.524;  484.485;  446.876;  -14.397
344.120;  466.885;  432.262;  -20.654
344.716;  450.815;  413.833;   -5.730
345.313;  506.912;  480.927;  -10.929
345.909;  385.520;  342.011;  -19.843
346.505;  473.555;  436.364;  -19.645
347.101;  528.435;  490.958;   -9.618
347.697;  507.308;  467.365;  -10.305
348.293;  383.025;  344.251;  -23.189
348.889;  480.841;  438.836;  -18.418
349.485;  435.267;  384.594;  -10.476
350.081;  495.531;  454.803;  -17.320
350.676;  439.116;  395.638;  -21.088
351.272;  520.353;  474.538;  -12.821
351.868;  494.397;  454.235;  -13.165
352.464;  465.706;  419.565;  -12.464
353.059;  414.656;  371.751;  -22.547
353.655;  504.570;  462.550;   -9.379
354.251;  489.979;  445.226;   -8.266
354.846;  474.877;  434.234;  -17.705
355.442;  485.556;  439.506;   -9.317
356.038;  485.377;  437.316;  -11.049
356.633;  468.559;  423.492;  -10.006
357.229;  469.027;  425.098;  -13.120
357.824;  450.047;  410.071;  -15.647
358.420;  430.430;  388.980;  -19.204
359.015;  439.989;  398.905;  -12.263
359.610;  503.313;  455.161;  -16.421
360.206;  379.263;  339.469;  -20.074
360.801;  412.576;  368.207;  -13.277
361.396;  467.430;  425.487;   -5.822
361.992;  429.014;  388.404;  -11.247
362.587;  432.658;  385.521;  -21.502
363.182;  440.465;  399.301;   -7.461
363.777;  478.657;  436.726;   -8.719
364.372;  481.746;  439.716;  -14.590
364.967;  445.483;  397.056;  -15.145
365.563;  533.072;  487.956;   -7.192
366.158;  447.752;  399.566;   -5.662
366.753;  417.123;  374.929;   -8.378
367.348;  484.771;  442.336;  -14.990
367.942;  453.308;  403.765;   -6.005
368.537;  489.749;  450.125;  -11.504
369.132;  457.392;  411.847;  -10.576
369.727;  408.549;  370.647;  -12.573
370.322;  377.987;  329.318;  -11.560
370.917;  464.283;  422.304;  -10.388
371.511;  573.736;  526.876;   -9.161
372.106;  514.550;  477.156;  -10.245
372.701;  379.184;  333.029;  -10.158
373.296;  575.822;  531.224;   -4.719
373.890;  417.225;  378.521;  -11.802
374.485;  461.397;  420.279;  -13.500
375.079;  493.753;  450.906;   -6.276
375.674;  542.654;  500.215;   -0.447
376.268;  457.110;  416.988;   -6.916
376.863;  379.772;  339.418;  -14.483
377.457;  437.212;  401.520;   -6.903
378.052;  510.702;  466.935;   -9.844
378.646;  495.279;  457.469;  -12.601
379.240;  480.025;  443.092;  -14.715
379.835;  431.443;  383.209;  -12.331
380.429;  374.291;  326.727;   -9.074
381.023;  523.370;  486.447;   -1.729
381.617;  455.537;  412.160;  -13.714
382.212;  459.649;  421.010;   -7.060
382.806;  513.946;  474.220;   -2.303
383.400;  448.754;  415.320;   -0.815
383.994;  447.633;  409.675;   -4.429
384.588;  471.258;  433.890;   -6.261
385.182;  491.033;  451.715;    0.008
385.776;  480.251;  444.976;   -3.247
386.370;  459.889;  425.010;   -1.030
386.964;  469.070;  428.755;   -1.346
387.558;  404.166;  358.906;   -2.020
388.152;  460.920;  426.062;   -5.345
388.745;  559.231;  525.538;   -2.774
389.339;  513.214;  484.952;    3.510
389.933;  471.306;  435.917;    5.280
390.527;  585.769;  556.134;    2.610
391.120;  398.216;  367.345;   -7.914
391.714;  486.104;  450.473;   -1.903
392.308;  538.769;  501.397;    6.023
392.901;  435.805;  405.276;   -4.103
393.495;  406.233;  373.438;    3.284
394.089;  525.318;  492.192;    8.655
394.682;  481.541;  449.791;    2.312
395.275;  492.693;  466.091;   -7.402
395.869;  455.172;  425.698;   -1.072
396.462;  422.060;  391.306;    6.454
397.056;  528.647;  500.706;    8.494
397.649;  504.014;  479.805;    1.599
398.242;  489.711;  462.999;    3.153
398.836;  524.901;  498.021;   11.395
399.429;  423.466;  400.852;   14.695
400.022;  450.607;  432.501;    3.627
400.615;  555.884;  538.132;    8.383
401.208;  468.907;  446.863;   13.295
401.802;  477.988;  454.579;    6.211
402.395;  469.640;  447.734;    7.227
402.988;  475.399;  451.215;    2.700
403.581;  441.418;  413.103;   11.225
404.174;  474.253;  453.490;   18.922
404.767;  430.973;  415.270;   14.169
405.360;  422.974;  400.695;    8.999
405.953;  519.350;  490.897;   13.138
406.545;  495.333;  476.388;   13.937
407.138;  416.941;  394.439;   10.869
407.731;  414.553;  400.391;   12.768
408.324;  450.177;  427.127;   22.921
408.917;  457.933;  443.448;   15.308
409.509;  505.461;  493.496;   12.239
410.102;  439.232;  419.217;   13.741
410.695;  454.412;  431.403;   20.249
411.287;  403.441;  386.549;   21.793
411.880;  389.637;  381.535;   22.965
412.472;  406.770;  402.894;   15.082
413.065;  424.439;  413.469;   23.423
413.657;  382.116;  371.883;   21.077
414.250;  433.650;  420.377;   12.349
414.842;  454.483;  441.751;   20.423
415.434;  381.436;  370.604;   19.906
416.027;  432.266;  421.460;   26.574
416.619;  479.178;  469.417;   15.705
417.211;  391.962;  385.081;   17.791
417.804;  419.381;  402.209;   30.244
418.396;  404.813;  399.311;   24.177
418.988;  436.701;  430.319;   24.904
419.580;  376.345;  367.521;   20.692
420.172;  358.905;  353.384;   22.275
420.764;  449.643;  439.276;   26.773
421.356;  426.286;  416.954;   25.731
421.948;  451.002;  451.479;   24.876
422.540;  454.710;  448.554;   30.042
423.132;  389.099;  389.159;   32.728
423.724;  362.998;  364.076;   21.317
424.316;  410.725;  401.037;   29.359
424.908;  385.426;  384.026;   28.798
425.500;  427.307;  420.493;   30.512
426.092;  423.271;  415.597;   26.741
426.683;  461.122;  455.610;   27.029
427.275;  427.233;  418.767;   32.611
427.867;  442.594;  436.346;   33.796
428.458;  483.317;  475.212;   34.453
429.050;  454.119;  448.830;   34.255
429.642;  488.474;  490.604;   39.082
430.233;  358.481;  356.763;   41.138
430.825;  479.451;  482.287;   31.581
431.416;  456.718;  457.128;   35.755
432.008;  420.021;  411.713;   40.566
432.599;  419.990;  421.497;   46.322
433.190;  415.005;  410.745;   46.897
433.782;  385.644;  379.813;   41.069
434.373;  586.363;  589.623;   48.778
434.964;  383.600;  379.395;   50.078
435.556;  405.720;  405.856;   52.381
436.147;  497.875;  493.316;   38.251
436.738;  453.767;  455.759;   47.237
437.329;  466.504;  462.759;   61.304
437.920;  429.528;  429.359;   48.611
438.511;  356.703;  358.172;   44.910
439.103;  393.560;  394.743;   62.404
439.694;  437.247;  435.667;   63.075
440.285;  490.821;  497.775;   61.033
440.876;  556.504;  554.861;   57.249
441.466;  354.776;  355.217;   61.306
442.057;  418.015;  421.853;   65.773
442.648;  481.598;  479.009;   65.676
443.239;  392.527;  391.774;   55.963
443.830;  452.359;  447.867;   69.631
444.421;  412.005;  409.282;   69.943
445.011;  438.604;  440.130;   72.791
445.602;  474.187;  475.218;   68.848
446.193;  294.482;  289.880;   80.044
446.783;  395.252;  390.851;   82.599
447.374;  438.775;  440.444;   77.419
447.964;  454.125;  446.408;   72.605
448.555;  525.001;  527.827;   82.041
449.145;  411.943;  411.627;   76.230
449.736;  506.607;  512.600;   75.545
450.326;  445.075;  451.236;   67.945
450.917;  420.901;  415.408;   77.598
451.507;  365.686;  362.493;   68.027
452.097;  471.141;  473.860;   67.771
452.688;  467.834;  462.279;   62.884
453.278;  332.305;  338.493;   65.512
453.868;  500.725;  503.912;   71.796
454.458;  400.577;  394.953;   60.956
455.048;  437.702;  437.873;   62.356
455.639;  340.479;  334.515;   58.782
456.229;  436.926;  440.675;   65.209
456.819;  461.784;  466.677;   61.466
457.409;  485.307;  481.128;   59.967
457.999;  455.104;  449.881;   58.093
458.589;  421.309;  417.908;   59.536
459.179;  437.355;  437.091;   55.994
459.769;  372.223;  372.249;   43.624
460.358;  494.565;  488.228;   46.978
460.948;  418.336;  408.154;   49.821
461.538;  396.901;  391.000;   54.678
462.128;  403.826;  396.875;   49.309
462.717;  426.259;  423.321;   52.774
463.307;  427.944;  423.256;   48.101
463.897;  387.336;  384.542;   45.606
464.486;  525.815;  524.293;   45.010
465.076;  443.943;  441.649;   45.519
465.666;  379.875;  374.268;   50.058
466.255;  478.804;  474.393;   44.463
466.845;  393.237;  387.211;   41.206
467.434;  439.409;  424.688;   44.847
468.023;  383.909;  377.718;   46.760
468.613;  428.609;  422.941;   39.736
469.202;  378.469;  369.407;   46.461
469.791;  439.926;  429.932;   47.944
470.381;  443.450;  434.973;   47.529
470.970;  412.385;  406.861;   43.773
471.559;  440.665;  428.056;   41.646
472.148;  388.212;  379.588;   37.914
472.738;  450.814;  441.906;   48.071
473.327;  354.639;  347.159;   47.871
473.916;  435.111;  427.635;   37.716
474.505;  438.275;  434.219;   40.256
475.094;  483.647;  471.223;   43.269
475.683;  470.317;  454.217;   36.499
476.272;  426.720;  416.541;   44.542
476.861;  402.815;  387.399;   42.297
477.449;  417.734;  400.102;   46.878
478.038;  385.635;  375.742;   35.156
478.627;  405.082;  393.394;   42.514
479.216;  444.591;  421.384;   43.937
479.805;  452.703;  429.150;   51.393
480.393;  609.327;  593.969;   53.239
480.982;  514.650;  503.699;   38.955
481.571;  500.717;  481.123;   45.436
482.159;  378.792;  365.728;   51.007
482.748;  474.135;  456.530;   49.695
483.336;  497.745;  472.134;   48.280
483.925;  432.113;  414.107;   47.166
484.513;  415.070;  396.464;   55.404
485.102;  441.374;  427.957;   54.238
485.690;  586.030;  564.805;   55.748
486.278;  563.082;  545.971;   55.934
486.867;  432.009;  418.355;   57.106
487.455;  500.859;  484.255;   56.979
488.043;  382.209;  364.352;   57.564
488.631;  570.269;  544.670;   57.432
489.220;  494.494;  467.920;   63.646
489.808;  363.946;  347.078;   65.449
490.396;  488.757;  466.870;   61.977
490.984;  416.980;  392.002;   68.834
491.572;  493.611;  463.968;   70.775
492.160;  463.143;  446.152;   67.564
492.748;  431.214;  405.612;   66.808
493.336;  506.149;  478.001;   79.747
493.924;  443.887;  404.945;   88.688
494.512;  491.594;  467.227;   84.120
495.100;  482.562;  463.219;   86.250
495.687;  508.934;  481.836;  103.074
496.275;  407.930;  384.150;  108.717
496.863;  429.526;  404.803;  107.035
497.451;  419.144;  398.294;  117.993
498.038;  451.256;  423.756;  120.116
498.626;  435.622;  410.875;  143.059
499.214;  463.382;  439.271;  153.434
499.801;  449.983;  425.344;  175.121
500.389;  375.672;  350.829;  185.617
500.976;  478.404;  442.021;  215.789
501.564;  454.181;  426.642;  240.321
502.151;  321.790;  296.059;  267.007
502.738;  428.396;  401.601;  317.961
503.326;  437.891;  407.992;  361.216
503.913;  461.296;  432.559;  401.433
504.500;  476.294;  443.554;  446.492
505.088;  406.537;  373.728;  512.063
505.675;  437.460;  409.822;  586.387
506.262;  435.804;  406.392;  671.021
506.849;  444.253;  419.819;  759.062
507.436;  505.050;  477.106;  849.788
508.023;  452.876;  416.429;  944.288
508.610;  494.350;  461.389; 1020.690
509.197;  476.937;  446.115; 1089.052
509.784;  446.464;  421.247; 1133.776
510.371;  375.385;  344.805; 1165.501
510.958;  456.996;  428.742; 1251.735
511.545;  528.093;  495.766; 1350.248
512.132;  451.748;  414.552; 1525.945
512.719;  400.396;  367.793; 1834.933
513.305;  413.152;  376.622; 1965.349
513.892;  518.769;  490.642; 1963.265
514.479;  468.394;  430.353; 2046.446
515.066;  510.877;  478.374; 2252.803
515.652;  468.417;  427.304; 2567.247
516.239;  498.036;  456.707; 2636.919
516.825;  385.268;  358.595; 2482.304
517.412;  580.316;  545.991; 2427.031
517.998;  441.364;  407.151; 2540.463
518.585;  437.323;  402.625; 2609.007
519.171;  465.253;  432.545; 2842.088
519.758;  394.219;  351.321; 3090.703
520.344;  502.730;  463.514; 3176.076
520.930;  407.035;  374.466; 3295.037
521.516;  491.658;  447.977; 3500.959
522.103;  533.570;  492.264; 3736.704
522.689;  432.899;  400.951; 3971.022
523.275;  517.236;  480.038; 4213.778
523.861;  451.554;  411.788; 4190.361
524.447;  512.733;  469.742; 4070.602
525.033;  516.654;  484.410; 4088.892
525.619;  418.958;  379.280; 4416.851
526.205;  405.031;  361.911; 4836.835
526.791;  451.249;  401.416; 4885.903
527.377;  432.653;  391.487; 4544.907
527.963;  467.746;  431.280; 4321.995
528.549;  476.920;  437.447; 4473.979
529.135;  422.702;  382.725; 4788.663
529.721;  463.845;  420.218; 4888.577
530.306;  624.487;  580.947; 4775.779
530.892;  441.339;  395.249; 4793.906
531.478;  438.068;  389.046; 4956.948
532.063;  416.486;  368.426; 5136.936
532.649;  570.273;  522.196; 5336.867
533.235;  419.347;  377.000; 5748.092
533.820;  534.492;  482.790; 6456.875
534.406;  451.041;  409.399; 6590.167
534.991;  429.234;  377.820; 6179.622
535.576;  456.926;  411.785; 6098.691
536.162;  630.510;  584.963; 6441.234
536.747;  405.459;  356.157; 6816.224
537.333;  428.292;  376.896; 6889.752
537.918;  463.370;  412.087; 7154.280
538.503;  444.196;  388.705; 7150.848
539.088;  485.839;  436.665; 7253.308
539.673;  456.635;  407.318; 7625.180
540.259;  438.312;  383.364; 8226.793
540.844;  385.854;  336.610; 8745.092
541.429;  566.048;  519.480; 8762.553
542.014;  404.573;  350.519; 8871.497
542.599;  493.881;  435.412; 8886.008
543.184;  413.539;  356.454; 9079.139
543.769;  438.412;  383.817; 9076.182
544.354;  454.886;  395.094; 8354.081
544.938;  490.630;  437.052; 8236.809
545.523;  572.027;  512.791; 8222.179
546.108;  478.142;  415.345; 8114.082
546.693;  479.173;  413.231; 8535.912
547.278;  478.322;  413.668; 9238.322
547.862;  484.744;  408.157; 9034.405
548.447;  528.962;  462.999; 7795.011
549.031;  472.547;  404.079; 7485.099
549.616;  507.971;  435.463; 7626.308
550.201;  467.457;  393.375; 7627.909
550.785;  528.682;  449.341; 7859.125
551.370;  435.229;  359.017; 7990.654
551.954;  551.056;  467.270; 8196.468
552.538;  535.842;  457.008; 7959.495
553.123;  469.570;  384.555; 7964.826
553.707;  489.919;  400.284; 8515.957
554.291;  582.722;  489.018; 8724.024
554.876;  557.126;  460.260; 8524.211
555.460;  487.908;  384.052; 8704.456
556.044;  493.048;  387.855; 9141.473
556.628;  538.401;  417.244; 9250.197
557.212;  601.398;  479.461; 9444.237
557.796;  534.053;  405.744; 9379.783
558.380;  575.038;  434.930; 9353.658
558.964;  571.280;  421.226; 9210.310
559.548;  518.553;  353.821; 8475.153
560.132;  560.232;  397.378; 7954.084
560.716;  533.680;  363.734; 7489.529
561.300;  561.530;  357.771; 7211.952
561.884;  645.375;  449.167; 7141.313
562.467;  656.439;  445.272; 7155.386
563.051;  658.612;  417.174; 7323.158
563.635;  672.482;  401.327; 7709.114
564.219;  693.552;  414.401; 7678.855
564.802;  747.599;  443.494; 7376.187
565.386;  766.363;  421.879; 7054.372
565.969;  855.857;  490.012; 6589.196
566.553;  944.314;  538.506; 6279.371
567.136;  918.108;  479.126; 5967.930
567.720;  898.591;  420.827; 5660.703
568.303;  954.568;  435.839; 5648.615
568.887;  982.176;  420.625; 5618.443
569.470; 1039.482;  434.505; 5411.875
570.053; 1089.157;  461.885; 5149.274
570.637; 1064.625;  379.297; 5122.798
571.220; 1234.335;  464.538; 4957.369
571.803; 1419.887;  541.031; 4933.018
572.386; 1394.606;  395.375; 4840.973
572.969; 1507.981;  404.785; 4592.886
573.552; 1628.868;  408.464; 4348.387
574.135; 1631.016;  381.817; 4002.290
574.718; 1654.341;  389.178; 3654.773
575.301; 1766.144;  385.145; 3502.288
575.884; 1877.947;  381.111; 3349.803
576.467; 2251.125;  478.927; 3191.403
577.050; 2423.392;  428.239; 3062.418
577.633; 2687.529;  519.252; 3214.200
578.216; 2692.103;  403.683; 3284.889
578.799; 2854.524;  404.034; 3189.777
579.381; 3200.260;  541.163; 3064.502
579.964; 3305.986;  385.784; 2888.357
580.547; 3582.469;  428.540; 2905.760
581.129; 3885.216;  497.348; 2966.849
581.712; 4027.679;  447.028; 2887.292
582.294; 4312.352;  420.025; 2771.631
582.877; 4815.898;  539.038; 2711.602
583.459; 5096.706;  414.466; 2577.049
584.042; 5260.297;  408.667; 2454.707
584.624; 5546.209;  379.923; 2305.893
585.206; 5984.193;  326.348; 2189.546
585.789; 6232.410;  391.946; 2112.577
586.371; 6246.663;  441.495; 2153.065
586.953; 6548.809;  465.752; 2197.806
587.536; 7140.169;  495.483; 2105.489
588.118; 8163.389;  411.286; 1963.911
588.700; 8898.686;  503.076; 1843.179
589.282; 8992.282;  447.902; 1813.834
589.864; 9335.519;  420.445; 1777.620
590.446; 9646.333;  329.246; 1733.780
591.028;10194.271;  425.227; 1676.008
591.610;10639.911;  342.207; 1631.649
592.192;10449.645;  430.570; 1632.362
592.774; 9831.983;  365.246; 1569.507
593.356;10247.464;  392.805; 1524.539
593.937;10882.728;  383.391; 1569.720
594.519;12200.515;  481.979; 1569.049
595.101;12819.525;  348.094; 1545.452
