
Integration time [ms]:   3.276
Averaging Nr. [scans]: 1000
Smoothing Nr. [pixels]: 0
Data measured with spectrometer [name]: 7414430SP
Wave   ;Sample   ;Dark     ;Reference
[nm]   ;[counts] ;[counts] ;[counts] 

288.544;  149.040;    7.793;  793.890
289.143;  154.138;    7.462;  681.602
289.742;  154.236;    8.602;  828.814
290.341;  139.776;    1.321;  789.841
290.940;  127.750;   -0.709;  730.702
291.538;  128.714;    0.881;  881.108
292.137;  129.828;    0.122;  792.581
292.736;  133.698;   -1.929;  975.101
293.335;  129.884;   -8.229;  735.086
293.934;  131.113;   -5.279;  781.677
294.532;  129.812;   -1.369; 1031.958
295.131;  115.259;   -7.641;  834.394
295.730;  115.109;   -8.420;  809.588
296.328;  114.222;   -5.611;  783.442
296.927;  115.551;   -5.781;  779.652
297.525;  116.855;   -6.361;  781.236
298.124;  106.690;  -11.382;  654.009
298.722;  110.052;   -7.641;  761.933
299.321;  107.836;   -6.811;  708.597
299.919;  106.462;   -6.991;  751.918
300.518;  102.947;  -10.362;  689.338
301.116;  104.952;   -9.581;  691.381
301.715;  105.314;   -4.891;  730.222
302.313;  104.457;   -8.801;  704.943
302.911;   98.335;   -8.522;  733.830
303.509;  104.515;   -6.171;  925.627
304.108;  102.349;   -7.311;  760.383
304.706;  101.432;   -8.321;  801.664
305.304;   95.100;  -10.222;  796.707
305.902;  100.892;   -6.021;  784.484
306.500;   96.979;   -4.971;  728.200
307.098;   96.266;   -7.061;  746.560
307.696;   92.609;   -8.801;  780.432
308.294;   93.298;   -6.411;  731.359
308.892;   95.972;   -2.901;  759.769
309.490;   92.298;   -5.041;  712.161
310.088;   90.231;   -5.002;  788.444
310.686;   94.250;   -2.041;  821.749
311.284;   90.544;   -2.351;  766.040
311.882;   87.405;   -4.422;  731.225
312.480;   84.671;   -4.192;  697.167
313.078;   87.077;   -1.172;  808.331
313.675;   87.129;   -2.601;  691.600
314.273;   83.052;   -1.312;  797.837
314.871;   81.092;   -3.942;  589.829
315.468;   79.126;   -2.802;  652.090
316.066;   82.542;   -0.701;  694.427
316.664;   75.583;   -4.362;  656.351
317.261;   79.697;   -2.872;  910.128
317.859;   75.107;   -2.022;  768.735
318.456;   75.104;   -0.531;  830.096
319.054;   71.600;   -3.912;  787.828
319.651;   69.759;   -4.752;  759.928
320.249;   69.348;   -2.602;  810.188
320.846;   67.482;   -0.821;  714.286
321.443;   64.236;   -4.642;  832.135
322.041;   61.395;   -5.002;  812.315
322.638;   58.777;   -3.982;  701.456
323.235;   60.917;   -3.411;  665.683
323.833;   57.459;   -7.361;  740.354
324.430;   53.025;   -8.611;  615.900
325.027;   53.901;   -4.061;  876.855
325.624;   53.946;   -4.031;  644.532
326.221;   51.035;   -7.481;  689.717
326.818;   49.989;   -5.281;  818.332
327.415;   53.173;   -7.460;  748.828
328.012;   53.618;   -5.510;  690.585
328.609;   52.272;   -7.880;  731.389
329.206;   50.201;   -8.331;  778.621
329.803;   49.820;   -5.121;  737.841
330.400;   52.618;   -4.510;  704.260
330.997;   53.667;   -6.441;  817.147
331.594;   51.743;   -8.831;  788.185
332.191;   57.744;   -7.621;  728.722
332.787;   60.290;   -4.591;  844.463
333.384;   59.525;   -7.412;  763.093
333.981;   57.217;   -8.293;  815.687
334.578;   60.310;   -7.052;  708.378
335.174;   64.254;   -3.102;  731.469
335.771;   63.503;   -5.943;  836.456
336.367;   59.822;   -7.393;  710.631
336.964;   62.996;   -4.063;  793.266
337.561;   61.434;   -3.813;  731.112
338.157;   58.364;   -4.654;  911.916
338.754;   55.398;   -7.934;  796.589
339.350;   53.362;   -4.414;  722.493
339.946;   55.190;   -4.664;  773.135
340.543;   47.263;   -6.375;  846.136
341.139;   41.220;   -9.815;  720.836
341.735;   39.656;   -4.526;  772.593
342.332;   38.070;   -4.895;  691.472
342.928;   38.972;   -4.295;  795.394
343.524;   32.452;   -5.476;  761.684
344.120;   29.176;   -5.856;  738.562
344.716;   32.174;   -2.155;  723.717
345.313;   29.838;   -6.275;  795.342
345.909;   24.645;   -8.815;  627.336
346.505;   26.572;   -5.305;  740.247
347.101;   27.889;   -2.674;  827.864
347.697;   27.300;   -4.344;  785.398
348.293;   21.894;   -9.975;  627.244
348.889;   23.278;   -5.774;  745.914
349.485;   22.914;   -5.004;  688.205
350.081;   23.661;   -4.704;  772.592
350.676;   18.303;   -6.635;  691.606
351.272;   22.559;   -4.504;  809.530
351.868;   21.316;   -3.914;  780.497
352.464;   19.242;   -9.044;  723.932
353.059;   14.963;   -8.314;  646.017
353.655;   19.017;   -7.024;  777.063
354.251;   20.155;   -5.343;  759.845
354.846;   14.522;   -8.604;  740.646
355.442;   12.182;   -6.945;  753.071
356.038;   15.047;   -7.564;  751.708
356.633;   14.111;   -5.814;  728.594
357.229;   12.405;   -7.364;  724.757
357.824;   10.187;   -8.024;  703.600
358.420;    9.264;   -9.384;  679.726
359.015;   10.112;   -5.104;  695.357
359.610;   10.917;   -6.854;  763.920
360.206;    4.768;  -10.185;  603.240
360.801;    8.425;   -7.054;  646.503
361.396;   10.214;   -5.034;  725.975
361.992;    5.574;   -8.284;  668.220
362.587;    2.669;   -8.625;  670.160
363.182;    4.706;   -7.674;  689.631
363.777;    5.600;   -5.164;  738.242
364.372;    5.066;   -8.604;  737.314
364.967;    0.831;   -9.055;  680.744
365.563;    6.073;   -6.114;  815.567
366.158;    2.603;   -5.814;  685.161
366.753;    3.248;   -7.854;  649.263
367.348;    1.632;   -7.804;  746.056
367.942;    0.779;   -7.954;  697.298
368.537;    1.207;   -4.984;  754.245
369.132;    1.228;   -8.564;  703.428
369.727;   -3.552;   -8.855;  638.079
370.322;   -2.257;   -6.245;  580.186
370.917;   -2.267;   -6.425;  710.646
371.511;    0.845;   -6.294;  861.834
372.106;   -3.311;   -7.685;  776.964
372.701;   -5.881;   -7.335;  585.988
373.296;   -0.174;   -4.564;  863.135
373.890;   -4.850;  -10.235;  647.840
374.485;   -7.434;   -7.885;  691.199
375.079;   -3.557;   -7.324;  738.685
375.674;   -1.601;   -3.494;  812.970
376.268;   -6.075;   -8.525;  691.759
376.863;  -12.687;  -10.086;  580.327
377.457;   -6.240;   -7.025;  662.490
378.052;   -7.931;   -3.585;  764.884
378.646;   -8.597;   -7.595;  741.167
379.240;   -9.136;   -8.335;  721.176
379.835;   -8.269;   -5.785;  636.978
380.429;  -10.186;   -4.335;  562.557
381.023;   -9.549;   -6.805;  779.205
381.617;  -12.920;   -9.195;  680.106
382.212;   -8.522;   -6.905;  685.303
382.806;   -7.220;   -3.745;  760.690
383.400;  -11.925;   -7.745;  672.281
383.994;  -13.827;   -9.765;  664.870
384.588;   -9.241;   -6.564;  697.701
385.182;   -8.632;   -5.344;  726.624
385.776;   -9.938;   -8.514;  706.875
386.370;  -13.296;   -9.555;  681.968
386.964;  -11.752;   -8.715;  684.155
387.558;  -10.060;   -6.174;  598.360
388.152;  -13.456;   -8.725;  681.959
388.745;  -12.955;   -7.965;  814.707
389.339;  -10.687;   -5.924;  747.642
389.933;   -8.649;   -5.524;  695.370
390.527;  -10.357;   -7.114;  859.029
391.120;  -17.057;  -10.725;  595.318
391.714;  -14.158;   -8.035;  711.633
392.308;   -9.820;   -3.574;  780.253
392.901;  -14.314;   -7.245;  642.460
393.495;  -16.410;   -9.285;  595.414
394.089;  -13.679;   -5.895;  760.452
394.682;  -13.705;   -4.295;  697.188
395.275;  -15.121;   -9.875;  719.927
395.869;  -16.732;   -8.485;  667.314
396.462;  -14.636;   -7.455;  616.609
397.056;  -10.574;   -5.424;  776.621
397.649;  -15.372;   -6.605;  731.575
398.242;  -13.512;   -8.224;  712.645
398.836;  -12.387;   -7.474;  766.408
399.429;  -12.384;   -7.094;  631.041
400.022;  -16.693;   -9.475;  665.902
400.615;  -14.441;   -7.145;  805.609
401.208;  -12.661;   -7.174;  691.451
401.802;  -14.856;   -5.515;  699.329
402.395;  -16.109;   -9.875;  683.502
402.988;  -16.944;   -8.845;  696.627
403.581;  -13.779;   -8.874;  646.878
404.174;  -11.199;   -5.324;  686.568
404.767;  -14.372;   -9.575;  638.583
405.360;  -16.950;  -10.965;  621.445
405.953;  -11.527;   -8.764;  759.034
406.545;  -10.664;   -7.514;  725.342
407.138;  -14.907;  -10.025;  618.350
407.731;  -14.709;  -10.034;  613.303
408.324;   -9.419;   -9.374;  660.554
408.917;  -10.658;   -6.534;  681.864
409.509;  -12.619;   -8.004;  740.396
410.102;  -14.964;   -9.875;  643.948
410.695;   -8.217;   -8.604;  665.758
411.287;   -9.266;   -6.794;  599.821
411.880;  -10.954;   -9.334;  585.421
412.472;  -14.261;  -10.254;  613.092
413.065;  -10.879;   -6.714;  629.408
413.657;   -8.023;   -7.234;  576.678
414.250;   -8.876;  -10.544;  646.681
414.842;  -10.916;   -9.744;  676.353
415.434;   -8.435;   -6.994;  570.463
416.027;   -3.909;   -5.893;  652.196
416.619;   -6.140;   -7.264;  713.400
417.211;   -7.234;  -10.374;  599.352
417.804;   -3.275;   -7.993;  628.499
418.396;   -6.840;   -7.234;  607.643
418.988;   -4.987;   -9.443;  659.238
419.580;   -8.728;  -10.724;  568.276
420.172;   -6.400;  -10.323;  536.196
420.764;   -1.602;   -8.793;  672.482
421.356;   -3.072;  -11.143;  636.898
421.948;   -4.424;   -8.293;  677.661
422.540;    0.590;   -7.893;  680.027
423.132;    0.463;   -7.082;  600.641
423.724;   -2.907;   -8.653;  561.267
424.316;   -1.464;  -10.213;  621.345
424.908;    2.314;   -9.762;  591.517
425.500;    3.000;   -5.572;  647.978
426.092;    3.995;   -8.422;  648.268
426.683;    1.658;   -9.283;  684.836
427.275;    5.356;   -7.852;  641.471
427.867;    6.404;   -5.272;  668.948
428.458;    7.645;   -7.682;  732.344
429.050;    5.335;  -10.612;  680.749
429.642;    8.312;   -9.882;  743.124
430.233;    9.067;   -6.962;  569.356
430.825;    9.298;   -6.842;  724.809
431.416;    6.255;   -9.672;  698.241
432.008;   10.552;   -6.552;  651.723
432.599;   11.532;   -6.891;  656.073
433.190;    8.475;  -10.912;  637.670
433.782;    7.639;  -11.172;  590.395
434.373;   14.850;   -6.061;  884.765
434.964;   13.360;   -8.251;  602.920
435.556;   11.459;   -9.722;  634.537
436.147;   13.777;   -9.082;  758.490
436.738;   14.317;   -8.041;  701.099
437.329;   19.891;   -7.341;  721.723
437.920;   13.235;   -8.162;  666.688
438.511;   11.892;  -11.802;  564.526
439.103;   18.871;  -10.191;  623.998
439.694;   20.891;   -7.601;  681.583
440.285;   21.752;   -8.541;  764.432
440.876;   19.066;   -9.751;  845.738
441.466;   18.982;   -9.401;  575.162
442.057;   24.769;   -7.760;  665.814
442.648;   22.810;   -9.971;  746.255
443.239;   20.124;  -11.001;  620.477
443.830;   26.455;   -7.990;  704.958
444.421;   28.424;   -7.910;  655.474
445.011;   24.680;   -8.131;  693.619
445.602;   23.774;   -7.111;  743.126
446.193;   24.698;  -10.920;  488.117
446.783;   31.389;   -6.500;  640.397
447.374;   26.187;   -8.671;  692.759
447.964;   25.791;  -10.781;  713.770
448.555;   34.896;   -9.650;  822.742
449.145;   32.070;   -8.660;  662.853
449.736;   32.113;   -8.990;  803.179
450.326;   32.163;   -9.500;  713.626
450.917;   36.585;   -8.680;  675.324
451.507;   36.951;   -7.520;  600.661
452.097;   36.941;   -8.590;  746.267
452.688;   37.913;  -11.340;  742.160
453.278;   37.150;  -10.100;  566.840
453.868;   42.091;   -6.019;  793.550
454.458;   40.427;   -9.440;  651.141
455.048;   39.975;  -10.560;  711.783
455.639;   42.452;  -11.799;  567.096
456.229;   45.594;   -6.899;  710.694
456.819;   47.310;   -7.389;  751.158
457.409;   46.963;  -11.119;  773.993
457.999;   50.270;   -9.289;  737.505
458.589;   50.570;   -6.139;  686.606
459.179;   49.994;   -8.729;  717.658
459.769;   47.936;   -9.789;  627.099
460.358;   52.714;  -10.259;  797.262
460.948;   52.665;   -7.299;  689.503
461.538;   54.627;  -10.289;  660.677
462.128;   52.095;  -11.269;  664.934
462.717;   59.075;   -9.368;  710.326
463.307;   62.267;   -7.908;  705.846
463.897;   57.837;   -9.599;  656.942
464.486;   56.818;   -9.769;  837.128
465.076;   61.945;   -8.048;  733.776
465.666;   65.613;   -9.358;  652.900
466.255;   62.898;   -7.919;  785.651
466.845;   61.547;  -11.689;  666.749
467.434;   65.249;   -7.818;  725.873
468.023;   65.493;   -7.678;  658.357
468.613;   63.192;  -10.939;  713.946
469.202;   67.493;  -10.118;  646.507
469.791;   72.191;   -9.108;  737.811
470.381;   73.943;   -6.058;  742.813
470.970;   73.450;  -10.428;  711.099
471.559;   73.239;  -10.268;  733.291
472.148;   76.639;   -8.448;  675.737
472.738;   79.045;   -6.917;  765.466
473.327;   79.168;  -11.978;  637.529
473.916;   77.436;  -11.888;  737.446
474.505;   81.492;   -9.437;  751.703
475.094;   85.622;   -6.747;  806.570
475.683;   85.093;   -9.367;  797.699
476.272;   84.832;  -12.637;  730.632
476.861;   88.289;  -10.027;  706.754
477.449;   94.389;   -8.716;  728.487
478.038;   89.910;   -9.577;  692.513
478.627;   89.815;   -9.718;  714.852
479.216;   96.829;   -8.947;  769.441
479.805;  100.300;   -6.256;  783.375
480.393;   99.540;   -7.937; 1008.945
480.982;   97.603;   -7.717;  874.501
481.571;  104.810;   -9.266;  858.333
482.159;  105.053;   -7.636;  705.386
482.748;  105.613;   -9.667;  821.385
483.336;  109.922;  -10.376;  858.209
483.925;  110.278;   -7.147;  774.373
484.513;  116.456;   -7.996;  758.962
485.102;  113.577;  -10.027;  810.965
485.690;  122.440;  -10.446; 1011.050
486.278;  124.674;   -8.446;  979.329
486.867;  125.478;   -6.356;  809.662
487.455;  125.981;   -9.136;  898.229
488.043;  126.644;  -10.646;  748.361
488.631;  136.517;   -7.456; 1005.079
489.220;  139.805;   -6.636;  908.626
489.808;  140.158;  -11.036;  741.415
490.396;  147.136;  -10.246;  914.645
490.984;  153.673;   -8.556;  830.161
491.572;  163.454;   -5.886;  940.315
492.160;  168.562;   -9.486;  919.081
492.748;  180.266;  -10.976;  884.341
493.336;  202.612;   -8.776; 1019.693
493.924;  228.505;   -5.465;  958.077
494.512;  253.655;   -9.986; 1066.638
495.100;  289.916;  -10.636; 1103.280
495.687;  343.468;  -10.885; 1206.373
496.275;  404.335;   -8.126; 1150.796
496.863;  471.605;  -10.586; 1281.171
497.451;  568.509;  -11.926; 1386.805
498.038;  695.818;  -10.885; 1556.729
498.626;  796.258;   -6.315; 1741.407
499.214;  935.920;   -7.326; 2016.609
499.801; 1125.757;  -11.906; 2220.633
500.389; 1359.299;  -10.466; 2312.494
500.976; 1660.514;   -5.236; 2744.849
501.564; 2082.756;   -8.936; 3148.565
502.151; 2446.606;  -13.176; 3515.999
502.738; 2876.265;  -10.646; 3971.274
503.326; 3242.249;   -9.525; 4403.796
503.913; 3602.573;  -10.856; 5161.749
504.500; 3950.337;  -11.586; 5986.420
505.088; 4341.092;  -10.336; 6381.201
505.675; 4859.346;   -6.355; 6925.547
506.262; 5549.187;   -9.046; 7619.060
506.849; 6221.762;  -10.416; 8733.969
507.436; 6664.063;  -10.305; 9790.121
508.023; 7222.666;   -5.496; 9985.472
508.610; 7495.333;   -7.856;10434.618
509.197; 8118.440;  -10.097;11198.435
509.784; 9447.278;  -10.886;12391.194
510.371;10463.951;   -9.315;13603.713
510.958;11181.823;   -9.936;14426.586
511.545;11908.791;   -9.326;15243.775
512.132;12800.039;  -10.075;15945.876
512.719;13385.934;   -7.796;16340.369
513.305;14281.179;  -10.606;18011.766
513.892;14998.289;  -11.486;19754.971
514.479;16274.532;   -9.126;20967.805
515.066;17700.055;   -6.026;22299.793
515.652;18926.055;   -8.466;22908.660
516.239;20316.352;  -10.886;23798.875
516.825;21429.477;  -11.496;25567.275
517.412;22512.529;   -5.796;28154.959
517.998;23009.010;  -10.506;28344.111
518.585;22990.129;  -10.076;27134.219
519.171;23531.518;   -8.315;27268.576
519.758;24951.170;   -8.596;28964.129
520.344;26716.906;   -8.466;30664.494
520.930;26829.084;  -11.006;32550.605
521.516;28412.975;  -10.495;35422.895
522.103;30757.557;   -5.526;38280.004
522.689;31330.818;   -8.746;37835.117
523.275;30717.113;  -11.376;37288.613
523.861;31755.922;  -11.156;37281.395
524.447;33047.801;   -8.135;37846.949
525.033;32813.359;   -7.896;38321.949
525.619;33030.715;  -12.476;38579.285
526.205;34773.492;   -9.516;40622.875
526.791;37079.395;   -6.926;42258.836
527.377;37276.332;   -8.346;42966.902
527.963;38805.953;   -8.717;42018.949
528.549;37217.461;  -11.016;42476.828
529.135;36095.438;   -8.536;41854.852
529.721;35658.023;   -9.666;41237.711
530.306;35029.070;  -10.066;41259.445
530.892;34798.027;  -11.356;41506.047
531.478;36228.016;   -6.596;43559.613
532.063;39078.070;   -8.836;47695.563
532.649;39364.398;  -10.047;50808.324
533.235;40427.805;   -9.746;51787.500
533.820;41283.867;   -6.566;52145.035
534.406;42679.879;  -10.817;51133.488
534.991;42496.711;   -9.416;49996.805
535.576;41091.484;   -9.036;48882.852
536.162;41480.188;   -6.156;46942.285
536.747;42412.973;  -11.607;45711.746
537.333;46368.383;  -11.787;48510.180
537.918;49052.922;  -12.437;50439.891
538.503;47486.375;   -7.196;50863.711
539.088;44440.074;  -10.556;50906.922
539.673;44422.512;   -8.767;52621.965
540.259;44211.242;  -10.026;52368.094
540.844;41591.125;   -7.416;50879.109
541.429;42775.926;   -9.467;52077.777
542.014;45646.199;   -9.527;52716.695
542.599;45114.035;   -9.946;52363.281
543.184;43031.754;   -7.927;53187.137
543.769;44506.316;   -9.297;54697.605
544.354;43728.047;  -10.127;53913.914
544.938;42461.848;   -9.267;49680.164
545.523;44300.848;   -6.506;47386.277
546.108;46780.324;   -9.787;49151.949
546.693;49009.574;  -11.587;51384.637
547.278;48717.930;  -10.986;51853.254
547.862;45818.172;   -8.206;51173.750
548.447;41516.137;  -10.067;51691.395
549.031;41055.164;   -9.637;52456.703
549.616;45846.762;   -9.926;52714.516
550.201;44930.477;   -6.347;52414.598
550.785;46018.480;   -7.917;52355.059
551.370;45219.723;  -10.867;54589.453
551.954;45064.453;   -9.047;58267.348
552.538;45908.031;   -7.827;59062.176
553.123;44374.523;  -10.287;58115.285
553.707;42332.477;  -12.178;56556.285
554.291;43392.461;   -8.717;56201.668
554.876;45250.539;   -7.457;55335.762
555.460;45602.055;  -10.387;54155.703
556.044;46884.555;   -9.618;53721.484
556.628;45570.793;  -11.567;53731.016
557.212;44278.355;   -8.097;54312.531
557.796;42877.859;  -11.077;53797.773
558.380;42729.184;  -11.108;56145.984
558.964;42968.398;   -9.057;57277.930
559.548;44008.203;   -6.977;56459.641
560.132;42519.484;  -11.457;54434.543
560.716;41375.230;  -11.378;54800.617
561.300;42466.695;   -9.577;57606.945
561.884;43429.488;   -7.127;58972.445
562.467;42109.574;   -7.118;57327.570
563.051;41487.273;  -13.358;54962.434
563.635;42459.254;  -10.178;52594.473
564.219;42637.066;   -7.837;50610.410
564.802;43424.742;  -11.398;49551.180
565.386;43505.578;  -12.788;48370.953
565.969;42978.078;   -9.077;48178.871
566.553;42428.449;   -6.207;49957.305
567.136;42624.395;   -8.568;50369.594
567.720;38945.512;  -11.868;49492.004
568.303;36973.523;   -8.268;50616.352
568.887;37118.973;   -8.698;50727.148
569.470;37314.941;   -6.808;51698.379
570.053;36020.914;  -13.188;52122.078
570.637;34490.609;  -12.037;52536.438
571.220;34206.559;   -8.577;51186.098
571.803;34774.434;   -8.498;51032.762
572.386;37167.375;  -10.498;49609.887
572.969;39497.559;   -9.388;48285.926
573.552;37419.270;   -8.338;47624.285
574.135;36061.605;   -8.518;45498.641
574.718;33692.898;  -13.628;41970.434
575.301;32618.480;  -10.893;41447.137
575.884;31544.061;   -8.158;40923.836
576.467;32745.568;  -10.328;45267.723
577.050;34784.582;  -13.058;48175.543
577.633;35950.391;   -9.458;47729.328
578.216;34531.195;   -8.928;47579.793
578.799;33167.711;   -9.358;47820.996
579.381;31762.545;  -11.388;48115.551
579.964;30591.244;  -11.718;47333.766
580.547;32715.512;   -8.588;46668.969
581.129;34295.063;   -8.859;44466.141
581.712;35123.531;  -10.729;44164.922
582.294;35730.941;  -11.118;46477.855
582.877;35617.754;   -5.218;48244.254
583.459;33055.117;   -8.679;47437.895
584.042;31247.988;  -10.709;46943.219
584.624;31912.393;  -11.669;46792.227
585.206;31164.156;   -8.218;46557.250
585.789;30965.232;  -10.569;45793.773
586.371;33240.750;  -11.859;43836.391
586.953;32901.309;  -10.719;42972.492
587.536;32731.457;   -7.198;42487.211
588.118;30692.324;   -8.720;42086.414
588.700;26421.693;  -10.439;43389.930
589.282;26605.184;   -9.198;43646.039
589.864;30177.225;   -9.199;43438.109
590.446;33204.980;  -11.319;43151.926
591.028;33970.707;  -11.159;42781.867
591.610;33320.324;  -11.779;42839.098
592.192;30985.160;   -7.668;42820.402
592.774;29577.744;  -11.949;40724.277
593.356;28315.943;  -12.129;39874.789
593.937;27353.875;  -10.669;39980.648
594.519;29460.520;   -6.509;42069.633
595.101;31597.855;  -10.849;42976.031
