gmr_right
Integration time [ms]: 238.412
Averaging Nr. [scans]: 40
Smoothing Nr. [pixels]: 0
Data measured with spectrometer [name]: 7414430SP
Wave   ;Sample   ;Dark     ;Reference
[nm]   ;[counts] ;[counts] ;[counts] 

288.544;  512.694;  332.182;    6.613
289.143;  444.893;  271.583;   14.216
289.742;  541.773;  358.283;   11.816
290.341;  513.121;  338.184;   -4.936
290.940;  475.765;  301.359;    0.852
291.538;  558.199;  386.909;    1.792
292.137;  510.287;  339.183;    6.262
292.736;  618.996;  448.984;    8.164
293.335;  472.743;  303.109;   -6.418
293.934;  503.264;  331.034;   -2.904
294.532;  650.489;  479.809;   -5.162
295.131;  536.243;  376.861;  -10.283
295.730;  519.798;  361.060;  -16.141
296.328;  505.380;  345.711;  -14.740
296.927;  501.718;  342.761;   -8.768
297.525;  500.752;  342.961;  -15.255
298.124;  425.745;  272.787;  -22.063
298.722;  493.485;  336.861;  -14.796
299.321;  461.363;  303.761;  -10.466
299.919;  483.415;  329.786;  -10.979
300.518;  443.224;  293.262;  -12.077
301.116;  444.157;  297.361;  -13.509
301.715;  466.022;  315.411;  -11.939
302.313;  458.006;  306.661;  -15.424
302.911;  473.314;  329.612;  -19.833
303.509;  584.800;  439.211;   -3.567
304.108;  487.231;  342.436;   -9.553
304.706;  507.956;  367.686;   -8.582
305.304;  508.153;  366.712;  -12.348
305.902;  497.381;  359.286;  -14.411
306.500;  461.865;  325.311;   -7.194
307.098;  472.482;  342.011;   -9.322
307.696;  490.029;  361.986;  -19.192
308.294;  467.565;  331.561;   -9.736
308.892;  479.517;  349.686;  -15.482
309.490;  448.366;  314.911;  -14.107
310.088;  488.902;  372.612;  -15.862
310.686;  510.559;  389.461;  -10.781
311.284;  480.341;  356.336;  -14.878
311.882;  459.444;  336.862;   -9.948
312.480;  433.880;  321.162;  -15.503
313.078;  500.947;  388.612;  -17.262
313.675;  432.664;  320.411;   -3.694
314.273;  491.784;  384.962;  -18.246
314.871;  371.180;  268.837;  -15.190
315.468;  403.589;  299.362;  -12.633
316.066;  434.209;  321.511;   -5.765
316.664;  408.073;  302.362;  -14.317
317.261;  548.878;  448.487;   -8.677
317.859;  471.257;  378.637;  -11.804
318.456;  506.005;  411.961;   -3.107
319.054;  477.487;  378.962;   -3.062
319.651;  463.303;  371.737;   -6.706
320.249;  488.803;  398.562;   -5.206
320.846;  427.984;  345.061;   -4.679
321.443;  495.106;  418.661;   -7.920
322.041;  486.265;  400.187;  -14.105
322.638;  418.290;  339.787;   -6.263
323.235;  391.781;  314.961;   -7.424
323.833;  439.429;  363.186;  -14.765
324.430;  356.849;  280.436;  -10.550
325.027;  516.871;  440.611;   -9.951
325.624;  383.559;  298.761;   -3.712
326.221;  410.279;  318.936;   -9.368
326.818;  488.703;  400.711;   -5.637
327.415;  444.248;  346.260;   -6.699
328.012;  409.429;  319.885;   -5.713
328.609;  426.157;  339.260;   -9.983
329.206;  462.755;  366.561;   -7.154
329.803;  435.672;  339.636;   -1.682
330.400;  415.178;  313.485;   -2.741
330.997;  475.808;  377.636;   -4.339
331.594;  461.552;  363.311;  -10.278
332.191;  430.914;  324.736;   -6.967
332.787;  492.091;  386.261;   -0.480
333.384;  445.798;  342.112;  -10.333
333.981;  472.699;  375.163;  -19.900
334.578;  414.378;  310.587;  -19.816
335.174;  423.924;  319.387;  -15.844
335.771;  485.112;  384.438;  -12.670
336.367;  412.421;  320.113;  -21.124
336.964;  460.601;  369.313;  -18.226
337.561;  423.345;  329.313;  -13.311
338.157;  529.842;  432.764;  -19.006
338.754;  460.599;  371.839;  -19.418
339.350;  415.525;  324.864;  -29.433
339.946;  442.616;  348.714;  -16.622
340.543;  483.388;  399.465;  -16.744
341.139;  406.640;  331.215;  -21.841
341.735;  444.331;  363.566;  -25.012
342.332;  388.071;  316.015;  -19.156
342.928;  455.846;  376.415;  -20.443
343.524;  434.994;  357.341;  -14.397
344.120;  419.702;  353.591;  -20.654
344.716;  407.980;  332.640;   -5.730
345.313;  457.016;  378.515;  -10.929
345.909;  352.355;  276.840;  -19.843
346.505;  428.149;  349.565;  -19.645
347.101;  471.131;  394.639;   -9.618
347.697;  453.894;  377.889;  -10.305
348.293;  349.431;  275.590;  -23.189
348.889;  423.535;  352.389;  -18.418
349.485;  383.713;  316.289;  -10.476
350.081;  441.616;  364.839;  -17.320
350.676;  392.957;  319.940;  -21.088
351.272;  462.097;  385.314;  -12.821
351.868;  439.508;  359.189;  -13.165
352.464;  411.332;  339.314;  -12.464
353.059;  369.319;  297.664;  -22.547
353.655;  448.478;  371.639;   -9.379
354.251;  431.960;  356.313;   -8.266
354.846;  417.463;  350.714;  -17.705
355.442;  421.218;  355.915;   -9.317
356.038;  426.230;  352.164;  -11.049
356.633;  416.766;  340.389;  -10.006
357.229;  413.452;  340.089;  -13.120
357.824;  403.095;  327.589;  -15.647
358.420;  383.281;  310.939;  -19.204
359.015;  393.909;  318.914;  -12.263
359.610;  438.044;  365.289;  -16.421
360.206;  343.580;  270.590;  -20.074
360.801;  367.637;  291.064;  -13.277
361.396;  422.116;  343.139;   -5.822
361.992;  379.770;  306.264;  -11.247
362.587;  382.947;  308.515;  -21.502
363.182;  391.733;  322.764;   -7.461
363.777;  429.662;  351.864;   -8.719
364.372;  425.943;  358.189;  -14.590
364.967;  390.340;  321.715;  -15.145
365.563;  467.388;  388.039;   -7.192
366.158;  402.845;  320.264;   -5.662
366.753;  374.570;  295.314;   -8.378
367.348;  428.619;  357.064;  -14.990
367.942;  402.119;  327.764;   -6.005
368.537;  434.998;  361.689;  -11.504
369.132;  408.065;  329.614;  -10.576
369.727;  368.922;  298.440;  -12.573
370.322;  338.890;  266.940;  -11.560
370.917;  412.407;  339.490;  -10.388
371.511;  502.968;  427.164;   -9.161
372.106;  454.640;  379.790;  -10.245
372.701;  341.926;  272.315;  -10.158
373.296;  499.117;  427.564;   -4.719
373.890;  377.497;  307.915;  -11.802
374.485;  406.931;  337.115;  -13.500
375.079;  433.231;  362.789;   -6.276
375.674;  480.649;  401.664;   -0.447
376.268;  404.105;  332.240;   -6.916
376.863;  341.320;  276.716;  -14.483
377.457;  388.734;  314.690;   -6.903
378.052;  447.808;  374.315;   -9.844
378.646;  438.859;  370.840;  -12.601
379.240;  422.138;  351.240;  -14.715
379.835;  379.870;  308.715;  -12.331
380.429;  334.521;  266.490;   -9.074
381.023;  456.967;  393.115;   -1.729
381.617;  397.676;  332.440;  -13.714
382.212;  403.481;  334.815;   -7.060
382.806;  444.509;  377.590;   -2.303
383.400;  393.448;  331.115;   -0.815
383.994;  390.227;  329.140;   -4.429
384.588;  417.105;  348.039;   -6.261
385.182;  431.479;  362.014;    0.008
385.776;  416.135;  356.039;   -3.247
386.370;  401.859;  341.465;   -1.030
386.964;  407.502;  342.840;   -1.346
387.558;  355.711;  293.714;   -2.020
388.152;  398.180;  343.690;   -5.345
388.745;  474.074;  419.915;   -2.774
389.339;  444.137;  385.039;    3.510
389.933;  407.915;  347.289;    5.280
390.527;  504.624;  452.139;    2.610
391.120;  348.014;  295.940;   -7.914
391.714;  416.785;  363.840;   -1.903
392.308;  464.283;  405.564;    6.023
392.901;  381.330;  324.365;   -4.103
393.495;  350.736;  301.415;    3.284
394.089;  452.735;  399.790;    8.655
394.682;  411.809;  361.290;    2.312
395.275;  423.267;  373.240;   -7.402
395.869;  394.204;  342.490;   -1.072
396.462;  363.034;  315.340;    6.454
397.056;  454.378;  403.889;    8.494
397.649;  431.779;  381.015;    1.599
398.242;  423.156;  373.064;    3.153
398.836;  449.040;  402.914;   11.395
399.429;  369.520;  324.289;   14.695
400.022;  388.273;  345.590;    3.627
400.615;  473.359;  432.340;    8.383
401.208;  409.524;  354.989;   13.295
401.802;  410.691;  365.940;    6.211
402.395;  400.648;  361.290;    7.227
402.988;  407.626;  362.265;    2.700
403.581;  376.511;  336.689;   11.225
404.174;  395.305;  354.064;   18.922
404.767;  380.831;  339.265;   14.169
405.360;  368.150;  326.690;    8.999
405.953;  446.200;  403.039;   13.138
406.545;  426.878;  377.889;   13.937
407.138;  356.476;  313.990;   10.869
407.731;  358.514;  317.039;   12.768
408.324;  391.656;  343.789;   22.921
408.917;  397.279;  359.814;   15.308
409.509;  435.494;  395.314;   12.239
410.102;  374.084;  340.165;   13.741
410.695;  388.225;  347.989;   20.249
411.287;  342.743;  311.239;   21.793
411.880;  338.686;  302.339;   22.965
412.472;  347.701;  318.389;   15.082
413.065;  364.523;  336.289;   23.423
413.657;  337.208;  298.039;   21.077
414.250;  375.759;  336.714;   12.349
414.842;  387.116;  352.064;   20.423
415.434;  335.868;  296.714;   19.906
416.027;  375.629;  339.988;   26.574
416.619;  415.867;  384.414;   15.705
417.211;  343.755;  309.039;   17.791
417.804;  367.539;  325.263;   30.244
418.396;  349.393;  319.364;   24.177
418.988;  381.673;  348.488;   24.904
419.580;  324.908;  292.489;   20.692
420.172;  314.639;  278.713;   22.275
420.764;  394.073;  355.763;   26.773
421.356;  369.289;  338.413;   25.731
421.948;  390.824;  359.838;   24.876
422.540;  396.324;  355.188;   30.042
423.132;  342.846;  313.387;   32.728
423.724;  320.043;  290.788;   21.317
424.316;  352.441;  323.238;   29.359
424.908;  346.543;  304.287;   28.798
425.500;  376.160;  335.712;   30.512
426.092;  371.114;  336.912;   26.741
426.683;  398.253;  362.463;   27.029
427.275;  372.781;  336.387;   32.611
427.867;  389.413;  351.337;   33.796
428.458;  424.111;  385.937;   34.453
429.050;  393.356;  356.687;   34.255
429.642;  428.786;  391.712;   39.082
430.233;  323.732;  287.987;   41.138
430.825;  424.355;  384.287;   31.581
431.416;  400.012;  366.212;   35.755
432.008;  373.685;  337.812;   40.566
432.599;  372.421;  335.336;   46.322
433.190;  370.031;  333.212;   46.897
433.782;  339.967;  302.337;   41.069
434.373;  513.042;  470.836;   48.778
434.964;  342.057;  307.636;   50.078
435.556;  359.749;  329.587;   52.381
436.147;  432.387;  392.887;   38.251
436.738;  406.524;  360.061;   47.237
437.329;  417.164;  372.511;   61.304
437.920;  382.272;  345.062;   48.611
438.511;  326.195;  279.837;   44.910
439.103;  361.721;  315.036;   62.404
439.694;  392.914;  350.436;   63.075
440.285;  443.560;  400.436;   61.033
440.876;  486.672;  444.436;   57.249
441.466;  324.749;  290.086;   61.306
442.057;  389.408;  331.460;   65.773
442.648;  432.387;  386.736;   65.676
443.239;  358.263;  312.761;   55.963
443.830;  409.469;  361.860;   69.631
444.421;  374.266;  328.660;   69.943
445.011;  400.705;  350.386;   72.791
445.602;  426.725;  379.461;   68.848
446.193;  284.085;  228.810;   80.044
446.783;  368.341;  313.585;   82.599
447.374;  394.963;  357.311;   77.419
447.964;  413.926;  362.536;   72.605
448.555;  475.626;  424.460;   82.041
449.145;  382.141;  330.310;   76.230
449.736;  463.611;  414.985;   75.545
450.326;  418.631;  359.935;   67.945
450.917;  396.143;  333.685;   77.598
451.507;  349.659;  290.635;   68.027
452.097;  438.629;  383.935;   67.771
452.688;  431.984;  368.435;   62.884
453.278;  326.317;  275.160;   65.512
453.868;  466.494;  403.809;   71.796
454.458;  375.759;  318.910;   60.956
455.048;  409.561;  353.535;   62.356
455.639;  328.847;  268.759;   58.782
456.229;  415.978;  346.284;   65.209
456.819;  439.322;  368.959;   61.466
457.409;  452.229;  386.634;   59.967
457.999;  433.832;  361.034;   58.093
458.589;  393.124;  333.359;   59.536
459.179;  417.580;  349.659;   55.994
459.769;  362.398;  298.609;   43.624
460.358;  463.039;  390.959;   46.978
460.948;  404.881;  328.684;   49.821
461.538;  383.828;  310.534;   54.678
462.128;  384.253;  315.259;   49.309
462.717;  415.604;  337.158;   52.774
463.307;  415.019;  332.983;   48.101
463.897;  383.021;  311.684;   45.606
464.486;  492.760;  417.409;   45.010
465.076;  434.409;  353.758;   45.519
465.666;  385.867;  297.008;   50.058
466.255;  459.858;  380.084;   44.463
466.845;  390.416;  313.384;   41.206
467.434;  424.583;  343.333;   44.847
468.023;  390.867;  300.133;   46.760
468.613;  419.874;  335.959;   39.736
469.202;  381.338;  295.883;   46.461
469.791;  434.830;  345.133;   47.944
470.381;  440.247;  347.033;   47.529
470.970;  419.974;  332.058;   43.773
471.559;  432.289;  342.008;   41.646
472.148;  395.698;  303.683;   37.914
472.738;  450.810;  356.482;   48.071
473.327;  378.661;  281.358;   47.871
473.916;  438.654;  344.183;   37.716
474.505;  443.516;  347.732;   40.256
475.094;  482.384;  376.407;   43.269
475.683;  467.573;  365.032;   36.499
476.272;  436.770;  330.607;   44.542
476.861;  418.378;  312.082;   42.297
477.449;  438.780;  321.156;   46.878
478.038;  409.112;  303.132;   35.156
478.627;  423.087;  312.283;   42.514
479.216;  455.779;  339.082;   43.937
479.805;  465.134;  342.281;   51.393
480.393;  595.249;  478.332;   53.239
480.982;  518.490;  400.307;   38.955
481.571;  515.424;  389.631;   45.436
482.159;  421.430;  293.706;   51.007
482.748;  486.164;  366.357;   49.695
483.336;  509.848;  381.181;   48.280
483.925;  466.209;  334.082;   47.166
484.513;  455.067;  315.681;   55.404
485.102;  481.931;  343.207;   54.238
485.690;  593.096;  454.581;   55.748
486.278;  583.004;  440.606;   55.934
486.867;  488.527;  333.306;   57.106
487.455;  540.331;  388.156;   56.979
488.043;  450.169;  294.606;   57.564
488.631;  601.691;  434.606;   57.432
489.220;  555.951;  375.931;   63.646
489.808;  453.549;  280.831;   65.449
490.396;  554.411;  376.381;   61.977
490.984;  508.735;  312.181;   68.834
491.572;  573.172;  372.756;   70.775
492.160;  559.594;  353.331;   67.564
492.748;  539.436;  321.856;   66.808
493.336;  625.538;  385.406;   79.747
493.924;  593.305;  328.880;   88.688
494.512;  654.233;  377.506;   84.120
495.100;  680.077;  368.731;   86.250
495.687;  734.954;  385.755;  103.074
496.275;  711.797;  306.906;  108.717
496.863;  790.398;  320.381;  107.035
497.451;  881.313;  318.181;  117.993
498.038; 1001.193;  337.580;  120.116
498.626; 1098.251;  323.705;  143.059
499.214; 1236.779;  350.431;  153.434
499.801; 1403.365;  340.156;  175.121
500.389; 1521.971;  273.880;  185.617
500.976; 1785.978;  353.806;  215.789
501.564; 2066.470;  344.506;  240.321
502.151; 2219.385;  238.081;  267.007
502.738; 2545.680;  318.731;  317.961
503.326; 2944.088;  325.180;  361.216
503.913; 3335.212;  343.006;  401.433
504.500; 3777.985;  355.181;  446.492
505.088; 4172.459;  301.106;  512.063
505.675; 4727.009;  330.580;  586.387
506.262; 5254.677;  325.506;  671.021
506.849; 5760.712;  335.756;  759.062
507.436; 6283.616;  380.255;  849.788
508.023; 6788.262;  334.181;  944.288
508.610; 7380.091;  374.231; 1020.690
509.197; 7951.826;  357.257; 1089.052
509.784; 8705.540;  331.206; 1133.776
510.371; 9419.395;  273.280; 1165.501
510.958;10504.612;  344.181; 1251.735
511.545;10701.057;  392.581; 1350.248
512.132;10883.538;  338.105; 1525.945
512.719;11694.188;  294.131; 1834.933
513.305;12445.178;  302.831; 1965.349
513.892;13476.465;  390.881; 1963.265
514.479;14768.177;  344.106; 2046.446
515.066;16185.721;  381.056; 2252.803
515.652;17281.459;  342.181; 2567.247
516.239;18021.133;  367.031; 2636.919
516.825;18256.523;  280.781; 2482.304
517.412;18412.898;  440.656; 2427.031
517.998;18201.756;  326.831; 2540.463
518.585;18336.885;  321.031; 2609.007
519.171;19417.904;  344.230; 2842.088
519.758;21386.596;  289.856; 3090.703
520.344;22886.715;  375.481; 3176.076
520.930;23958.396;  299.831; 3295.037
521.516;24672.721;  355.580; 3500.959
522.103;24713.066;  395.056; 3736.704
522.689;25528.867;  322.431; 3971.022
523.275;27063.148;  381.706; 4213.778
523.861;27271.232;  331.131; 4190.361
524.447;27161.428;  380.380; 4070.602
525.033;28046.730;  381.681; 4088.892
525.619;27991.262;  303.906; 4416.851
526.205;28605.031;  288.856; 4836.835
526.791;30361.455;  321.731; 4885.903
527.377;32194.346;  315.431; 4544.907
527.963;32491.957;  343.282; 4321.995
528.549;31783.396;  352.506; 4473.979
529.135;30952.789;  304.081; 4788.663
529.721;29506.072;  338.481; 4888.577
530.306;29849.146;  466.581; 4775.779
530.892;31446.188;  318.656; 4793.906
531.478;33105.031;  312.706; 4956.948
532.063;35366.043;  298.081; 5136.936
532.649;36898.430;  423.182; 5336.867
533.235;38067.801;  301.356; 5748.092
533.820;39079.879;  387.506; 6456.875
534.406;38598.227;  323.132; 6590.167
534.991;38242.586;  297.731; 6179.622
535.576;37534.789;  323.756; 6098.691
536.162;37468.570;  473.231; 6441.234
536.747;37698.641;  284.632; 6816.224
537.333;39377.387;  300.207; 6889.752
537.918;40202.574;  334.732; 7154.280
538.503;41119.848;  313.831; 7150.848
539.088;40276.012;  347.831; 7253.308
539.673;38578.906;  326.957; 7625.180
540.259;38535.809;  310.081; 8226.793
540.844;40163.582;  268.181; 8745.092
541.429;39402.895;  415.182; 8762.553
542.014;39122.703;  283.257; 8871.497
542.599;40192.762;  349.206; 8886.008
543.184;41867.863;  292.582; 9079.139
543.769;41792.398;  299.932; 9076.182
544.354;40167.477;  316.832; 8354.081
544.938;38078.863;  346.957; 8236.809
545.523;37382.199;  408.931; 8222.179
546.108;38914.961;  333.957; 8114.082
546.693;39053.387;  329.582; 8535.912
547.278;38741.426;  329.756; 9238.322
547.862;37463.297;  335.231; 9034.405
548.447;37057.395;  375.007; 7795.011
549.031;37219.609;  323.407; 7485.099
549.616;37455.270;  345.556; 7626.308
550.201;38022.637;  317.957; 7627.909
550.785;39339.621;  360.657; 7859.125
551.370;41105.930;  285.157; 7990.654
551.954;42451.559;  376.732; 8196.468
552.538;43918.969;  363.782; 7959.495
553.123;43085.531;  305.957; 7964.826
553.707;42512.059;  321.858; 8515.957
554.291;42031.727;  389.882; 8724.024
554.876;41513.254;  368.932; 8524.211
555.460;39972.617;  314.232; 8704.456
556.044;39952.137;  312.058; 9141.473
556.628;40545.570;  331.082; 9250.197
557.212;40955.934;  381.732; 9444.237
557.796;40278.129;  322.682; 9379.783
558.380;41067.801;  349.858; 9353.658
558.964;40542.719;  337.832; 9210.310
559.548;39722.254;  285.732; 8475.153
560.132;40018.141;  317.732; 7954.084
560.716;40565.980;  287.633; 7489.529
561.300;41631.195;  293.532; 7211.952
561.884;42445.906;  356.157; 7141.313
562.467;41453.070;  357.083; 7155.386
563.051;41012.406;  332.158; 7323.158
563.635;41151.711;  321.708; 7709.114
564.219;40687.383;  329.757; 7678.855
564.802;40303.418;  354.833; 7376.187
565.386;39047.363;  337.983; 7054.372
565.969;38549.152;  393.007; 6589.196
566.553;38133.984;  431.132; 6279.371
567.136;38095.797;  387.258; 5967.930
567.720;38078.828;  333.033; 5660.703
568.303;37629.828;  350.983; 5648.615
568.887;38560.926;  336.083; 5618.443
569.470;39063.535;  347.808; 5411.875
570.053;39271.559;  362.008; 5149.274
570.637;38827.070;  311.582; 5122.798
571.220;39283.395;  370.182; 4957.369
571.803;38663.402;  431.408; 4933.018
572.386;38925.086;  321.158; 4840.973
572.969;39418.945;  324.383; 4592.886
573.552;40087.313;  327.358; 4348.387
574.135;37261.270;  301.458; 4002.290
574.718;31915.406;  306.533; 3654.773
575.301;30862.994;  305.583; 3502.288
575.884;29810.584;  304.633; 3349.803
576.467;31241.178;  382.608; 3191.403
577.050;33534.012;  344.783; 3062.418
577.633;36094.285;  419.133; 3214.200
578.216;36957.082;  323.983; 3284.889
578.799;35621.711;  325.158; 3189.777
579.381;36105.746;  437.358; 3064.502
579.964;37737.086;  306.433; 2888.357
580.547;38186.238;  343.283; 2905.760
581.129;38459.035;  402.609; 2966.849
581.712;39682.004;  353.784; 2887.292
582.294;39830.742;  340.783; 2771.631
582.877;39478.832;  440.133; 2711.602
583.459;38652.219;  337.109; 2577.049
584.042;37375.414;  331.484; 2454.707
584.624;36825.891;  309.609; 2305.893
585.206;35600.781;  266.683; 2189.546
585.789;33966.875;  312.459; 2112.577
586.371;32643.910;  356.459; 2153.065
586.953;32733.275;  368.459; 2197.806
587.536;33471.156;  400.958; 2105.489
588.118;33491.465;  328.560; 1963.911
588.700;34146.824;  402.784; 1843.179
589.282;33600.754;  356.533; 1813.834
589.864;32580.809;  339.384; 1777.620
590.446;32487.258;  270.159; 1733.780
591.028;33167.293;  335.084; 1676.008
591.610;34348.754;  269.934; 1631.649
592.192;33722.086;  343.883; 1632.362
592.774;31715.504;  296.959; 1569.507
593.356;30455.012;  308.434; 1524.539
593.937;30924.381;  305.209; 1569.720
594.519;31639.168;  385.159; 1569.049
595.101;32147.186;  280.159; 1545.452
