membrane
Integration time [ms]: 238.412
Averaging Nr. [scans]: 40
Smoothing Nr. [pixels]: 0
Data measured with spectrometer [name]: 7414430SP
Wave   ;Sample   ;Dark     ;Reference
[nm]   ;[counts] ;[counts] ;[counts] 

288.544;  514.424;  332.182;    6.613
289.143;  454.635;  271.583;   14.216
289.742;  542.516;  358.283;   11.816
290.341;  520.154;  338.184;   -4.936
290.940;  482.180;  301.359;    0.852
291.538;  563.029;  386.909;    1.792
292.137;  521.589;  339.183;    6.262
292.736;  622.879;  448.984;    8.164
293.335;  483.013;  303.109;   -6.418
293.934;  506.607;  331.034;   -2.904
294.532;  657.680;  479.809;   -5.162
295.131;  542.357;  376.861;  -10.283
295.730;  525.036;  361.060;  -16.141
296.328;  510.844;  345.711;  -14.740
296.927;  508.161;  342.761;   -8.768
297.525;  503.616;  342.961;  -15.255
298.124;  428.304;  272.787;  -22.063
298.722;  500.005;  336.861;  -14.796
299.321;  461.163;  303.761;  -10.466
299.919;  482.094;  329.786;  -10.979
300.518;  447.109;  293.262;  -12.077
301.116;  455.581;  297.361;  -13.509
301.715;  475.815;  315.411;  -11.939
302.313;  463.777;  306.661;  -15.424
302.911;  469.653;  329.612;  -19.833
303.509;  591.045;  439.211;   -3.567
304.108;  492.051;  342.436;   -9.553
304.706;  517.000;  367.686;   -8.582
305.304;  510.863;  366.712;  -12.348
305.902;  508.574;  359.286;  -14.411
306.500;  467.715;  325.311;   -7.194
307.098;  483.384;  342.011;   -9.322
307.696;  496.311;  361.986;  -19.192
308.294;  465.867;  331.561;   -9.736
308.892;  487.261;  349.686;  -15.482
309.490;  453.696;  314.911;  -14.107
310.088;  495.962;  372.612;  -15.862
310.686;  512.506;  389.461;  -10.781
311.284;  483.397;  356.336;  -14.878
311.882;  462.254;  336.862;   -9.948
312.480;  435.896;  321.162;  -15.503
313.078;  508.207;  388.612;  -17.262
313.675;  437.240;  320.411;   -3.694
314.273;  498.150;  384.962;  -18.246
314.871;  369.193;  268.837;  -15.190
315.468;  408.528;  299.362;  -12.633
316.066;  436.785;  321.511;   -5.765
316.664;  411.465;  302.362;  -14.317
317.261;  555.912;  448.487;   -8.677
317.859;  471.870;  378.637;  -11.804
318.456;  506.685;  411.961;   -3.107
319.054;  478.399;  378.962;   -3.062
319.651;  460.286;  371.737;   -6.706
320.249;  488.836;  398.562;   -5.206
320.846;  429.288;  345.061;   -4.679
321.443;  504.388;  418.661;   -7.920
322.041;  485.650;  400.187;  -14.105
322.638;  420.173;  339.787;   -6.263
323.235;  399.602;  314.961;   -7.424
323.833;  442.655;  363.186;  -14.765
324.430;  361.253;  280.436;  -10.550
325.027;  518.997;  440.611;   -9.951
325.624;  384.923;  298.761;   -3.712
326.221;  409.597;  318.936;   -9.368
326.818;  485.302;  400.711;   -5.637
327.415;  443.159;  346.260;   -6.699
328.012;  411.738;  319.885;   -5.713
328.609;  432.671;  339.260;   -9.983
329.206;  463.148;  366.561;   -7.154
329.803;  439.517;  339.636;   -1.682
330.400;  417.691;  313.485;   -2.741
330.997;  481.801;  377.636;   -4.339
331.594;  470.033;  363.311;  -10.278
332.191;  431.959;  324.736;   -6.967
332.787;  493.990;  386.261;   -0.480
333.384;  449.086;  342.112;  -10.333
333.981;  484.901;  375.163;  -19.900
334.578;  418.925;  310.587;  -19.816
335.174;  432.121;  319.387;  -15.844
335.771;  488.995;  384.438;  -12.670
336.367;  418.687;  320.113;  -21.124
336.964;  469.411;  369.313;  -18.226
337.561;  431.884;  329.313;  -13.311
338.157;  527.421;  432.764;  -19.006
338.754;  462.533;  371.839;  -19.418
339.350;  418.682;  324.864;  -29.433
339.946;  447.364;  348.714;  -16.622
340.543;  488.282;  399.465;  -16.744
341.139;  414.192;  331.215;  -21.841
341.735;  446.710;  363.566;  -25.012
342.332;  404.697;  316.015;  -19.156
342.928;  455.319;  376.415;  -20.443
343.524;  441.100;  357.341;  -14.397
344.120;  424.760;  353.591;  -20.654
344.716;  411.949;  332.640;   -5.730
345.313;  460.185;  378.515;  -10.929
345.909;  350.352;  276.840;  -19.843
346.505;  424.889;  349.565;  -19.645
347.101;  475.292;  394.639;   -9.618
347.697;  454.399;  377.889;  -10.305
348.293;  353.168;  275.590;  -23.189
348.889;  428.544;  352.389;  -18.418
349.485;  397.395;  316.289;  -10.476
350.081;  446.796;  364.839;  -17.320
350.676;  392.996;  319.940;  -21.088
351.272;  468.872;  385.314;  -12.821
351.868;  441.879;  359.189;  -13.165
352.464;  419.258;  339.314;  -12.464
353.059;  374.176;  297.664;  -22.547
353.655;  448.501;  371.639;   -9.379
354.251;  443.703;  356.313;   -8.266
354.846;  424.893;  350.714;  -17.705
355.442;  430.681;  355.915;   -9.317
356.038;  433.434;  352.164;  -11.049
356.633;  422.318;  340.389;  -10.006
357.229;  417.507;  340.089;  -13.120
357.824;  406.329;  327.589;  -15.647
358.420;  391.339;  310.939;  -19.204
359.015;  396.939;  318.914;  -12.263
359.610;  440.145;  365.289;  -16.421
360.206;  342.919;  270.590;  -20.074
360.801;  372.441;  291.064;  -13.277
361.396;  422.889;  343.139;   -5.822
361.992;  382.454;  306.264;  -11.247
362.587;  386.363;  308.515;  -21.502
363.182;  401.418;  322.764;   -7.461
363.777;  427.118;  351.864;   -8.719
364.372;  428.275;  358.189;  -14.590
364.967;  392.481;  321.715;  -15.145
365.563;  476.465;  388.039;   -7.192
366.158;  404.550;  320.264;   -5.662
366.753;  378.796;  295.314;   -8.378
367.348;  434.428;  357.064;  -14.990
367.942;  402.974;  327.764;   -6.005
368.537;  433.109;  361.689;  -11.504
369.132;  413.148;  329.614;  -10.576
369.727;  368.389;  298.440;  -12.573
370.322;  341.877;  266.940;  -11.560
370.917;  420.571;  339.490;  -10.388
371.511;  506.301;  427.164;   -9.161
372.106;  456.806;  379.790;  -10.245
372.701;  340.145;  272.315;  -10.158
373.296;  505.524;  427.564;   -4.719
373.890;  377.363;  307.915;  -11.802
374.485;  416.403;  337.115;  -13.500
375.079;  438.565;  362.789;   -6.276
375.674;  483.632;  401.664;   -0.447
376.268;  409.896;  332.240;   -6.916
376.863;  336.200;  276.716;  -14.483
377.457;  393.395;  314.690;   -6.903
378.052;  451.851;  374.315;   -9.844
378.646;  436.927;  370.840;  -12.601
379.240;  427.408;  351.240;  -14.715
379.835;  384.708;  308.715;  -12.331
380.429;  334.135;  266.490;   -9.074
381.023;  463.563;  393.115;   -1.729
381.617;  401.200;  332.440;  -13.714
382.212;  405.744;  334.815;   -7.060
382.806;  453.145;  377.590;   -2.303
383.400;  397.919;  331.115;   -0.815
383.994;  395.949;  329.140;   -4.429
384.588;  413.016;  348.039;   -6.261
385.182;  432.182;  362.014;    0.008
385.776;  424.618;  356.039;   -3.247
386.370;  407.276;  341.465;   -1.030
386.964;  403.338;  342.840;   -1.346
387.558;  361.140;  293.714;   -2.020
388.152;  405.095;  343.690;   -5.345
388.745;  480.938;  419.915;   -2.774
389.339;  449.544;  385.039;    3.510
389.933;  419.568;  347.289;    5.280
390.527;  507.684;  452.139;    2.610
391.120;  354.261;  295.940;   -7.914
391.714;  422.623;  363.840;   -1.903
392.308;  464.964;  405.564;    6.023
392.901;  383.368;  324.365;   -4.103
393.495;  358.079;  301.415;    3.284
394.089;  453.900;  399.790;    8.655
394.682;  412.774;  361.290;    2.312
395.275;  428.007;  373.240;   -7.402
395.869;  397.548;  342.490;   -1.072
396.462;  370.372;  315.340;    6.454
397.056;  459.557;  403.889;    8.494
397.649;  434.647;  381.015;    1.599
398.242;  422.441;  373.064;    3.153
398.836;  456.097;  402.914;   11.395
399.429;  375.452;  324.289;   14.695
400.022;  393.142;  345.590;    3.627
400.615;  474.398;  432.340;    8.383
401.208;  408.605;  354.989;   13.295
401.802;  415.604;  365.940;    6.211
402.395;  412.767;  361.290;    7.227
402.988;  405.872;  362.265;    2.700
403.581;  385.045;  336.689;   11.225
404.174;  405.857;  354.064;   18.922
404.767;  378.545;  339.265;   14.169
405.360;  373.119;  326.690;    8.999
405.953;  450.231;  403.039;   13.138
406.545;  430.405;  377.889;   13.937
407.138;  369.089;  313.990;   10.869
407.731;  363.975;  317.039;   12.768
408.324;  390.329;  343.789;   22.921
408.917;  405.982;  359.814;   15.308
409.509;  441.154;  395.314;   12.239
410.102;  378.575;  340.165;   13.741
410.695;  390.371;  347.989;   20.249
411.287;  354.167;  311.239;   21.793
411.880;  348.486;  302.339;   22.965
412.472;  359.761;  318.389;   15.082
413.065;  369.678;  336.289;   23.423
413.657;  338.502;  298.039;   21.077
414.250;  380.429;  336.714;   12.349
414.842;  393.144;  352.064;   20.423
415.434;  335.364;  296.714;   19.906
416.027;  384.438;  339.988;   26.574
416.619;  418.461;  384.414;   15.705
417.211;  351.524;  309.039;   17.791
417.804;  370.120;  325.263;   30.244
418.396;  353.588;  319.364;   24.177
418.988;  386.462;  348.488;   24.904
419.580;  331.206;  292.489;   20.692
420.172;  313.353;  278.713;   22.275
420.764;  393.454;  355.763;   26.773
421.356;  378.748;  338.413;   25.731
421.948;  396.340;  359.838;   24.876
422.540;  397.374;  355.188;   30.042
423.132;  350.046;  313.387;   32.728
423.724;  330.004;  290.788;   21.317
424.316;  364.273;  323.238;   29.359
424.908;  347.014;  304.287;   28.798
425.500;  381.556;  335.712;   30.512
426.092;  375.384;  336.912;   26.741
426.683;  401.905;  362.463;   27.029
427.275;  381.496;  336.387;   32.611
427.867;  390.576;  351.337;   33.796
428.458;  426.350;  385.937;   34.453
429.050;  399.051;  356.687;   34.255
429.642;  433.651;  391.712;   39.082
430.233;  326.243;  287.987;   41.138
430.825;  430.767;  384.287;   31.581
431.416;  404.607;  366.212;   35.755
432.008;  378.343;  337.812;   40.566
432.599;  386.053;  335.336;   46.322
433.190;  372.099;  333.212;   46.897
433.782;  345.559;  302.337;   41.069
434.373;  511.845;  470.836;   48.778
434.964;  353.634;  307.636;   50.078
435.556;  372.261;  329.587;   52.381
436.147;  444.171;  392.887;   38.251
436.738;  408.906;  360.061;   47.237
437.329;  419.608;  372.511;   61.304
437.920;  394.438;  345.062;   48.611
438.511;  330.585;  279.837;   44.910
439.103;  366.041;  315.036;   62.404
439.694;  400.807;  350.436;   63.075
440.285;  447.906;  400.436;   61.033
440.876;  493.050;  444.436;   57.249
441.466;  334.473;  290.086;   61.306
442.057;  395.394;  331.460;   65.773
442.648;  443.207;  386.736;   65.676
443.239;  368.064;  312.761;   55.963
443.830;  416.207;  361.860;   69.631
444.421;  386.898;  328.660;   69.943
445.011;  405.378;  350.386;   72.791
445.602;  436.224;  379.461;   68.848
446.193;  288.321;  228.810;   80.044
446.783;  374.818;  313.585;   82.599
447.374;  402.409;  357.311;   77.419
447.964;  411.222;  362.536;   72.605
448.555;  480.802;  424.460;   82.041
449.145;  391.926;  330.310;   76.230
449.736;  469.924;  414.985;   75.545
450.326;  422.594;  359.935;   67.945
450.917;  400.217;  333.685;   77.598
451.507;  356.610;  290.635;   68.027
452.097;  444.959;  383.935;   67.771
452.688;  441.837;  368.435;   62.884
453.278;  332.143;  275.160;   65.512
453.868;  470.088;  403.809;   71.796
454.458;  383.336;  318.910;   60.956
455.048;  415.964;  353.535;   62.356
455.639;  337.090;  268.759;   58.782
456.229;  426.143;  346.284;   65.209
456.819;  445.211;  368.959;   61.466
457.409;  463.495;  386.634;   59.967
457.999;  434.391;  361.034;   58.093
458.589;  407.709;  333.359;   59.536
459.179;  430.217;  349.659;   55.994
459.769;  372.016;  298.609;   43.624
460.358;  469.071;  390.959;   46.978
460.948;  407.814;  328.684;   49.821
461.538;  397.460;  310.534;   54.678
462.128;  395.993;  315.259;   49.309
462.717;  425.299;  337.158;   52.774
463.307;  428.109;  332.983;   48.101
463.897;  399.552;  311.684;   45.606
464.486;  497.602;  417.409;   45.010
465.076;  440.559;  353.758;   45.519
465.666;  396.005;  297.008;   50.058
466.255;  471.611;  380.084;   44.463
466.845;  400.821;  313.384;   41.206
467.434;  436.982;  343.333;   44.847
468.023;  394.412;  300.133;   46.760
468.613;  430.459;  335.959;   39.736
469.202;  393.460;  295.883;   46.461
469.791;  444.344;  345.133;   47.944
470.381;  445.735;  347.033;   47.529
470.970;  424.589;  332.058;   43.773
471.559;  442.209;  342.008;   41.646
472.148;  405.784;  303.683;   37.914
472.738;  461.268;  356.482;   48.071
473.327;  386.871;  281.358;   47.871
473.916;  450.272;  344.183;   37.716
474.505;  457.298;  347.732;   40.256
475.094;  490.136;  376.407;   43.269
475.683;  477.805;  365.032;   36.499
476.272;  447.753;  330.607;   44.542
476.861;  429.878;  312.082;   42.297
477.449;  446.091;  321.156;   46.878
478.038;  422.271;  303.132;   35.156
478.627;  437.023;  312.283;   42.514
479.216;  467.247;  339.082;   43.937
479.805;  475.873;  342.281;   51.393
480.393;  608.049;  478.332;   53.239
480.982;  530.495;  400.307;   38.955
481.571;  524.138;  389.631;   45.436
482.159;  431.592;  293.706;   51.007
482.748;  510.086;  366.357;   49.695
483.336;  527.115;  381.181;   48.280
483.925;  479.254;  334.082;   47.166
484.513;  467.846;  315.681;   55.404
485.102;  493.579;  343.207;   54.238
485.690;  614.228;  454.581;   55.748
486.278;  595.736;  440.606;   55.934
486.867;  502.136;  333.306;   57.106
487.455;  556.794;  388.156;   56.979
488.043;  462.458;  294.606;   57.564
488.631;  614.943;  434.606;   57.432
489.220;  567.077;  375.931;   63.646
489.808;  471.735;  280.831;   65.449
490.396;  571.143;  376.381;   61.977
490.984;  522.042;  312.181;   68.834
491.572;  590.775;  372.756;   70.775
492.160;  581.883;  353.331;   67.564
492.748;  562.626;  321.856;   66.808
493.336;  650.591;  385.406;   79.747
493.924;  613.652;  328.880;   88.688
494.512;  681.992;  377.506;   84.120
495.100;  714.191;  368.731;   86.250
495.687;  778.152;  385.755;  103.074
496.275;  763.823;  306.906;  108.717
496.863;  855.009;  320.381;  107.035
497.451;  947.425;  318.181;  117.993
498.038; 1083.689;  337.580;  120.116
498.626; 1204.324;  323.705;  143.059
499.214; 1355.861;  350.431;  153.434
499.801; 1537.676;  340.156;  175.121
500.389; 1683.670;  273.880;  185.617
500.976; 1975.903;  353.806;  215.789
501.564; 2305.006;  344.506;  240.321
502.151; 2489.198;  238.081;  267.007
502.738; 2860.508;  318.731;  317.961
503.326; 3301.483;  325.180;  361.216
503.913; 3722.316;  343.006;  401.433
504.500; 4214.644;  355.181;  446.492
505.088; 4670.543;  301.106;  512.063
505.675; 5242.754;  330.580;  586.387
506.262; 5819.365;  325.506;  671.021
506.849; 6383.967;  335.756;  759.062
507.436; 6930.863;  380.255;  849.788
508.023; 7475.636;  334.181;  944.288
508.610; 8144.771;  374.231; 1020.690
509.197; 8790.095;  357.257; 1089.052
509.784; 9619.820;  331.206; 1133.776
510.371;10459.663;  273.280; 1165.501
510.958;11645.023;  344.181; 1251.735
511.545;11825.765;  392.581; 1350.248
512.132;12054.034;  338.105; 1525.945
512.719;12954.016;  294.131; 1834.933
513.305;13760.637;  302.831; 1965.349
513.892;14845.806;  390.881; 1963.265
514.479;16273.677;  344.106; 2046.446
515.066;17816.799;  381.056; 2252.803
515.652;19039.436;  342.181; 2567.247
516.239;19869.838;  367.031; 2636.919
516.825;20152.150;  280.781; 2482.304
517.412;20338.498;  440.656; 2427.031
517.998;20172.365;  326.831; 2540.463
518.585;20338.572;  321.031; 2609.007
519.171;21493.152;  344.230; 2842.088
519.758;23684.994;  289.856; 3090.703
520.344;25313.596;  375.481; 3176.076
520.930;26512.188;  299.831; 3295.037
521.516;27195.068;  355.580; 3500.959
522.103;27206.846;  395.056; 3736.704
522.689;28084.807;  322.431; 3971.022
523.275;29703.186;  381.706; 4213.778
523.861;29941.012;  331.131; 4190.361
524.447;29760.725;  380.380; 4070.602
525.033;30639.691;  381.681; 4088.892
525.619;30720.428;  303.906; 4416.851
526.205;31376.018;  288.856; 4836.835
526.791;33236.707;  321.731; 4885.903
527.377;35364.359;  315.431; 4544.907
527.963;35652.227;  343.282; 4321.995
528.549;34904.387;  352.506; 4473.979
529.135;33984.523;  304.081; 4788.663
529.721;32382.408;  338.481; 4888.577
530.306;32546.361;  466.581; 4775.779
530.892;34262.320;  318.656; 4793.906
531.478;36214.910;  312.706; 4956.948
532.063;38865.383;  298.081; 5136.936
532.649;40486.078;  423.182; 5336.867
533.235;41720.039;  301.356; 5748.092
533.820;42735.781;  387.506; 6456.875
534.406;42105.570;  323.132; 6590.167
534.991;41677.375;  297.731; 6179.622
535.576;40970.074;  323.756; 6098.691
536.162;40907.527;  473.231; 6441.234
536.747;41140.887;  284.632; 6816.224
537.333;43114.660;  300.207; 6889.752
537.918;44110.895;  334.732; 7154.280
538.503;45039.055;  313.831; 7150.848
539.088;43878.230;  347.831; 7253.308
539.673;41930.148;  326.957; 7625.180
540.259;42128.445;  310.081; 8226.793
540.844;44098.391;  268.181; 8745.092
541.429;43265.418;  415.182; 8762.553
542.014;43031.680;  283.257; 8871.497
542.599;44011.125;  349.206; 8886.008
543.184;45581.383;  292.582; 9079.139
543.769;45540.348;  299.932; 9076.182
544.354;43710.176;  316.832; 8354.081
544.938;41513.133;  346.957; 8236.809
545.523;40905.188;  408.931; 8222.179
546.108;42506.906;  333.957; 8114.082
546.693;42518.168;  329.582; 8535.912
547.278;42199.516;  329.756; 9238.322
547.862;40759.680;  335.231; 9034.405
548.447;40477.270;  375.007; 7795.011
549.031;40676.590;  323.407; 7485.099
549.616;40897.762;  345.556; 7626.308
550.201;41429.656;  317.957; 7627.909
550.785;42678.969;  360.657; 7859.125
551.370;44453.754;  285.157; 7990.654
551.954;45853.656;  376.732; 8196.468
552.538;47463.840;  363.782; 7959.495
553.123;46509.559;  305.957; 7964.826
553.707;46129.672;  321.858; 8515.957
554.291;45805.348;  389.882; 8724.024
554.876;45148.883;  368.932; 8524.211
555.460;43227.773;  314.232; 8704.456
556.044;43034.602;  312.058; 9141.473
556.628;43844.547;  331.082; 9250.197
557.212;44351.199;  381.732; 9444.237
557.796;43676.082;  322.682; 9379.783
558.380;44334.215;  349.858; 9353.658
558.964;43662.766;  337.832; 9210.310
559.548;42882.953;  285.732; 8475.153
560.132;43262.250;  317.732; 7954.084
560.716;43861.195;  287.633; 7489.529
561.300;44893.594;  293.532; 7211.952
561.884;45706.789;  356.157; 7141.313
562.467;44746.633;  357.083; 7155.386
563.051;44411.168;  332.158; 7323.158
563.635;44584.098;  321.708; 7709.114
564.219;44108.215;  329.757; 7678.855
564.802;43766.008;  354.833; 7376.187
565.386;42454.801;  337.983; 7054.372
565.969;41795.000;  393.007; 6589.196
566.553;41317.145;  431.132; 6279.371
567.136;41145.613;  387.258; 5967.930
567.720;41037.547;  333.033; 5660.703
568.303;40476.742;  350.983; 5648.615
568.887;41439.863;  336.083; 5618.443
569.470;42047.906;  347.808; 5411.875
570.053;42285.953;  362.008; 5149.274
570.637;41644.125;  311.582; 5122.798
571.220;42263.625;  370.182; 4957.369
571.803;41628.652;  431.408; 4933.018
572.386;41917.305;  321.158; 4840.973
572.969;42361.055;  324.383; 4592.886
573.552;42871.375;  327.358; 4348.387
574.135;39891.043;  301.458; 4002.290
574.718;34269.449;  306.533; 3654.773
575.301;33116.000;  305.583; 3502.288
575.884;31962.555;  304.633; 3349.803
576.467;33370.695;  382.608; 3191.403
577.050;35910.457;  344.783; 3062.418
577.633;38766.223;  419.133; 3214.200
578.216;39626.402;  323.983; 3284.889
578.799;37987.012;  325.158; 3189.777
579.381;38477.141;  437.358; 3064.502
579.964;40291.770;  306.433; 2888.357
580.547;40683.109;  343.283; 2905.760
581.129;40930.867;  402.609; 2966.849
581.712;42038.313;  353.784; 2887.292
582.294;42058.609;  340.783; 2771.631
582.877;41667.176;  440.133; 2711.602
583.459;40802.926;  337.109; 2577.049
584.042;39502.969;  331.484; 2454.707
584.624;39029.824;  309.609; 2305.893
585.206;37736.402;  266.683; 2189.546
585.789;36014.680;  312.459; 2112.577
586.371;34589.273;  356.459; 2153.065
586.953;34542.656;  368.459; 2197.806
587.536;35117.852;  400.958; 2105.489
588.118;35136.711;  328.560; 1963.911
588.700;35779.910;  402.784; 1843.179
589.282;35168.305;  356.533; 1813.834
589.864;34119.813;  339.384; 1777.620
590.446;34062.172;  270.159; 1733.780
591.028;34776.727;  335.084; 1676.008
591.610;36103.035;  269.934; 1631.649
592.192;35425.465;  343.883; 1632.362
592.774;33336.113;  296.959; 1569.507
593.356;32133.682;  308.434; 1524.539
593.937;32641.635;  305.209; 1569.720
594.519;33299.098;  385.159; 1569.049
595.101;33832.078;  280.159; 1545.452
