
Integration time [ms]:   3.276
Averaging Nr. [scans]: 1000
Smoothing Nr. [pixels]: 0
Data measured with spectrometer [name]: 7414430SP
Wave   ;Sample   ;Dark     ;Reference
[nm]   ;[counts] ;[counts] ;[counts] 

288.544;  151.456;    7.793;  793.890
289.143;  154.635;    7.462;  681.602
289.742;  155.198;    8.602;  828.814
290.341;  141.453;    1.321;  789.841
290.940;  130.307;   -0.709;  730.702
291.538;  130.368;    0.881;  881.108
292.137;  131.071;    0.122;  792.581
292.736;  136.274;   -1.929;  975.101
293.335;  132.500;   -8.229;  735.086
293.934;  131.545;   -5.279;  781.677
294.532;  130.448;   -1.369; 1031.958
295.131;  116.647;   -7.641;  834.394
295.730;  116.856;   -8.420;  809.588
296.328;  114.711;   -5.611;  783.442
296.927;  116.509;   -5.781;  779.652
297.525;  117.613;   -6.361;  781.236
298.124;  107.656;  -11.382;  654.009
298.722;  112.188;   -7.641;  761.933
299.321;  108.843;   -6.811;  708.597
299.919;  106.891;   -6.991;  751.918
300.518;  104.252;  -10.362;  689.338
301.116;  106.280;   -9.581;  691.381
301.715;  105.263;   -4.891;  730.222
302.313;  104.871;   -8.801;  704.943
302.911;  100.905;   -8.522;  733.830
303.509;  105.312;   -6.171;  925.627
304.108;  103.283;   -7.311;  760.383
304.706;  101.907;   -8.321;  801.664
305.304;   97.285;  -10.222;  796.707
305.902;  101.468;   -6.021;  784.484
306.500;   97.859;   -4.971;  728.200
307.098;   96.865;   -7.061;  746.560
307.696;   94.290;   -8.801;  780.432
308.294;   94.112;   -6.411;  731.359
308.892;   96.346;   -2.901;  759.769
309.490;   93.779;   -5.041;  712.161
310.088;   91.739;   -5.002;  788.444
310.686;   95.832;   -2.041;  821.749
311.284;   90.788;   -2.351;  766.040
311.882;   89.843;   -4.422;  731.225
312.480;   86.736;   -4.192;  697.167
313.078;   86.574;   -1.172;  808.331
313.675;   88.103;   -2.601;  691.600
314.273;   83.077;   -1.312;  797.837
314.871;   83.261;   -3.942;  589.829
315.468;   80.290;   -2.802;  652.090
316.066;   82.754;   -0.701;  694.427
316.664;   76.663;   -4.362;  656.351
317.261;   80.160;   -2.872;  910.128
317.859;   75.507;   -2.022;  768.735
318.456;   76.751;   -0.531;  830.096
319.054;   72.581;   -3.912;  787.828
319.651;   71.196;   -4.752;  759.928
320.249;   70.063;   -2.602;  810.188
320.846;   67.683;   -0.821;  714.286
321.443;   65.612;   -4.642;  832.135
322.041;   61.762;   -5.002;  812.315
322.638;   60.305;   -3.982;  701.456
323.235;   61.963;   -3.411;  665.683
323.833;   58.830;   -7.361;  740.354
324.430;   53.980;   -8.611;  615.900
325.027;   55.021;   -4.061;  876.855
325.624;   53.559;   -4.031;  644.532
326.221;   51.588;   -7.481;  689.717
326.818;   51.301;   -5.281;  818.332
327.415;   54.375;   -7.460;  748.828
328.012;   53.370;   -5.510;  690.585
328.609;   52.382;   -7.880;  731.389
329.206;   50.625;   -8.331;  778.621
329.803;   50.540;   -5.121;  737.841
330.400;   52.787;   -4.510;  704.260
330.997;   54.771;   -6.441;  817.147
331.594;   53.009;   -8.831;  788.185
332.191;   58.698;   -7.621;  728.722
332.787;   61.470;   -4.591;  844.463
333.384;   60.335;   -7.412;  763.093
333.981;   58.148;   -8.293;  815.687
334.578;   61.143;   -7.052;  708.378
335.174;   64.110;   -3.102;  731.469
335.771;   64.430;   -5.943;  836.456
336.367;   61.356;   -7.393;  710.631
336.964;   63.866;   -4.063;  793.266
337.561;   63.037;   -3.813;  731.112
338.157;   58.527;   -4.654;  911.916
338.754;   55.802;   -7.934;  796.589
339.350;   53.308;   -4.414;  722.493
339.946;   55.674;   -4.664;  773.135
340.543;   47.668;   -6.375;  846.136
341.139;   42.284;   -9.815;  720.836
341.735;   40.013;   -4.526;  772.593
342.332;   39.414;   -4.895;  691.472
342.928;   39.121;   -4.295;  795.394
343.524;   33.310;   -5.476;  761.684
344.120;   29.027;   -5.856;  738.562
344.716;   33.072;   -2.155;  723.717
345.313;   30.583;   -6.275;  795.342
345.909;   25.116;   -8.815;  627.336
346.505;   26.559;   -5.305;  740.247
347.101;   26.745;   -2.674;  827.864
347.697;   28.312;   -4.344;  785.398
348.293;   22.239;   -9.975;  627.244
348.889;   22.813;   -5.774;  745.914
349.485;   22.334;   -5.004;  688.205
350.081;   22.869;   -4.704;  772.592
350.676;   18.521;   -6.635;  691.606
351.272;   22.644;   -4.504;  809.530
351.868;   22.182;   -3.914;  780.497
352.464;   19.609;   -9.044;  723.932
353.059;   16.169;   -8.314;  646.017
353.655;   19.255;   -7.024;  777.063
354.251;   20.056;   -5.343;  759.845
354.846;   15.054;   -8.604;  740.646
355.442;   13.179;   -6.945;  753.071
356.038;   13.986;   -7.564;  751.708
356.633;   14.669;   -5.814;  728.594
357.229;   12.745;   -7.364;  724.757
357.824;   11.156;   -8.024;  703.600
358.420;    9.284;   -9.384;  679.726
359.015;   10.354;   -5.104;  695.357
359.610;   11.735;   -6.854;  763.920
360.206;    5.678;  -10.185;  603.240
360.801;    8.622;   -7.054;  646.503
361.396;   10.692;   -5.034;  725.975
361.992;    6.245;   -8.284;  668.220
362.587;    3.084;   -8.625;  670.160
363.182;    4.836;   -7.674;  689.631
363.777;    6.624;   -5.164;  738.242
364.372;    5.806;   -8.604;  737.314
364.967;    2.136;   -9.055;  680.744
365.563;    6.091;   -6.114;  815.567
366.158;    3.808;   -5.814;  685.161
366.753;    3.429;   -7.854;  649.263
367.348;    2.338;   -7.804;  746.056
367.942;    1.826;   -7.954;  697.298
368.537;    1.312;   -4.984;  754.245
369.132;    1.839;   -8.564;  703.428
369.727;   -1.873;   -8.855;  638.079
370.322;   -1.267;   -6.245;  580.186
370.917;   -1.993;   -6.425;  710.646
371.511;    1.013;   -6.294;  861.834
372.106;   -2.534;   -7.685;  776.964
372.701;   -5.896;   -7.335;  585.988
373.296;    0.085;   -4.564;  863.135
373.890;   -4.338;  -10.235;  647.840
374.485;   -6.699;   -7.885;  691.199
375.079;   -3.518;   -7.324;  738.685
375.674;   -2.118;   -3.494;  812.970
376.268;   -6.135;   -8.525;  691.759
376.863;  -11.627;  -10.086;  580.327
377.457;   -5.759;   -7.025;  662.490
378.052;   -8.357;   -3.585;  764.884
378.646;   -8.086;   -7.595;  741.167
379.240;   -8.793;   -8.335;  721.176
379.835;   -7.723;   -5.785;  636.978
380.429;   -9.924;   -4.335;  562.557
381.023;   -9.795;   -6.805;  779.205
381.617;  -11.738;   -9.195;  680.106
382.212;   -8.252;   -6.905;  685.303
382.806;   -7.992;   -3.745;  760.690
383.400;  -11.613;   -7.745;  672.281
383.994;  -13.755;   -9.765;  664.870
384.588;   -9.469;   -6.564;  697.701
385.182;   -7.504;   -5.344;  726.624
385.776;   -9.217;   -8.514;  706.875
386.370;  -12.748;   -9.555;  681.968
386.964;  -11.874;   -8.715;  684.155
387.558;   -9.772;   -6.174;  598.360
388.152;  -13.174;   -8.725;  681.959
388.745;  -11.934;   -7.965;  814.707
389.339;   -9.644;   -5.924;  747.642
389.933;   -8.636;   -5.524;  695.370
390.527;   -9.719;   -7.114;  859.029
391.120;  -15.569;  -10.725;  595.318
391.714;  -13.281;   -8.035;  711.633
392.308;  -10.588;   -3.574;  780.253
392.901;  -13.812;   -7.245;  642.460
393.495;  -15.421;   -9.285;  595.414
394.089;  -13.577;   -5.895;  760.452
394.682;  -13.865;   -4.295;  697.188
395.275;  -13.969;   -9.875;  719.927
395.869;  -15.914;   -8.485;  667.314
396.462;  -14.439;   -7.455;  616.609
397.056;  -10.522;   -5.424;  776.621
397.649;  -15.085;   -6.605;  731.575
398.242;  -12.463;   -8.224;  712.645
398.836;  -12.062;   -7.474;  766.408
399.429;  -13.043;   -7.094;  631.041
400.022;  -16.305;   -9.475;  665.902
400.615;  -14.139;   -7.145;  805.609
401.208;  -11.333;   -7.174;  691.451
401.802;  -14.195;   -5.515;  699.329
402.395;  -15.331;   -9.875;  683.502
402.988;  -16.135;   -8.845;  696.627
403.581;  -13.281;   -8.874;  646.878
404.174;  -11.085;   -5.324;  686.568
404.767;  -13.414;   -9.575;  638.583
405.360;  -16.108;  -10.965;  621.445
405.953;  -10.880;   -8.764;  759.034
406.545;  -10.591;   -7.514;  725.342
407.138;  -14.305;  -10.025;  618.350
407.731;  -13.311;  -10.034;  613.303
408.324;   -9.719;   -9.374;  660.554
408.917;  -10.330;   -6.534;  681.864
409.509;  -12.125;   -8.004;  740.396
410.102;  -13.780;   -9.875;  643.948
410.695;   -8.510;   -8.604;  665.758
411.287;   -9.387;   -6.794;  599.821
411.880;  -10.685;   -9.334;  585.421
412.472;  -13.671;  -10.254;  613.092
413.065;  -10.142;   -6.714;  629.408
413.657;   -8.134;   -7.234;  576.678
414.250;   -8.377;  -10.544;  646.681
414.842;  -10.062;   -9.744;  676.353
415.434;   -7.660;   -6.994;  570.463
416.027;   -4.056;   -5.893;  652.196
416.619;   -5.738;   -7.264;  713.400
417.211;   -6.393;  -10.374;  599.352
417.804;   -2.176;   -7.993;  628.499
418.396;   -6.309;   -7.234;  607.643
418.988;   -4.889;   -9.443;  659.238
419.580;   -7.859;  -10.724;  568.276
420.172;   -5.881;  -10.323;  536.196
420.764;   -1.686;   -8.793;  672.482
421.356;   -2.147;  -11.143;  636.898
421.948;   -3.021;   -8.293;  677.661
422.540;    2.317;   -7.893;  680.027
423.132;    0.926;   -7.082;  600.641
423.724;   -2.241;   -8.653;  561.267
424.316;   -0.905;  -10.213;  621.345
424.908;    3.463;   -9.762;  591.517
425.500;    3.689;   -5.572;  647.978
426.092;    4.066;   -8.422;  648.268
426.683;    3.295;   -9.283;  684.836
427.275;    5.396;   -7.852;  641.471
427.867;    7.423;   -5.272;  668.948
428.458;    7.657;   -7.682;  732.344
429.050;    6.700;  -10.612;  680.749
429.642;    9.039;   -9.882;  743.124
430.233;    8.991;   -6.962;  569.356
430.825;   10.353;   -6.842;  724.809
431.416;    8.109;   -9.672;  698.241
432.008;   11.473;   -6.552;  651.723
432.599;   11.714;   -6.891;  656.073
433.190;    9.293;  -10.912;  637.670
433.782;    8.660;  -11.172;  590.395
434.373;   15.917;   -6.061;  884.765
434.964;   14.647;   -8.251;  602.920
435.556;   11.693;   -9.722;  634.537
436.147;   15.544;   -9.082;  758.490
436.738;   14.487;   -8.041;  701.099
437.329;   20.406;   -7.341;  721.723
437.920;   12.920;   -8.162;  666.688
438.511;   13.338;  -11.802;  564.526
439.103;   19.616;  -10.191;  623.998
439.694;   21.690;   -7.601;  681.583
440.285;   22.969;   -8.541;  764.432
440.876;   20.310;   -9.751;  845.738
441.466;   19.934;   -9.401;  575.162
442.057;   24.668;   -7.760;  665.814
442.648;   24.503;   -9.971;  746.255
443.239;   22.553;  -11.001;  620.477
443.830;   26.753;   -7.990;  704.958
444.421;   28.447;   -7.910;  655.474
445.011;   25.498;   -8.131;  693.619
445.602;   24.899;   -7.111;  743.126
446.193;   26.857;  -10.920;  488.117
446.783;   31.174;   -6.500;  640.397
447.374;   26.937;   -8.671;  692.759
447.964;   27.435;  -10.781;  713.770
448.555;   35.740;   -9.650;  822.742
449.145;   32.807;   -8.660;  662.853
449.736;   32.863;   -8.990;  803.179
450.326;   33.472;   -9.500;  713.626
450.917;   37.264;   -8.680;  675.324
451.507;   37.227;   -7.520;  600.661
452.097;   38.371;   -8.590;  746.267
452.688;   39.314;  -11.340;  742.160
453.278;   38.229;  -10.100;  566.840
453.868;   43.012;   -6.019;  793.550
454.458;   41.058;   -9.440;  651.141
455.048;   41.330;  -10.560;  711.783
455.639;   43.176;  -11.799;  567.096
456.229;   46.367;   -6.899;  710.694
456.819;   48.486;   -7.389;  751.158
457.409;   48.440;  -11.119;  773.993
457.999;   52.123;   -9.289;  737.505
458.589;   51.532;   -6.139;  686.606
459.179;   51.334;   -8.729;  717.658
459.769;   49.199;   -9.789;  627.099
460.358;   53.616;  -10.259;  797.262
460.948;   54.027;   -7.299;  689.503
461.538;   56.041;  -10.289;  660.677
462.128;   53.793;  -11.269;  664.934
462.717;   60.748;   -9.368;  710.326
463.307;   63.401;   -7.908;  705.846
463.897;   58.892;   -9.599;  656.942
464.486;   58.321;   -9.769;  837.128
465.076;   63.779;   -8.048;  733.776
465.666;   66.996;   -9.358;  652.900
466.255;   64.452;   -7.919;  785.651
466.845;   63.491;  -11.689;  666.749
467.434;   66.415;   -7.818;  725.873
468.023;   67.655;   -7.678;  658.357
468.613;   65.622;  -10.939;  713.946
469.202;   69.691;  -10.118;  646.507
469.791;   73.269;   -9.108;  737.811
470.381;   75.559;   -6.058;  742.813
470.970;   74.983;  -10.428;  711.099
471.559;   74.859;  -10.268;  733.291
472.148;   77.499;   -8.448;  675.737
472.738;   80.341;   -6.917;  765.466
473.327;   80.083;  -11.978;  637.529
473.916;   78.841;  -11.888;  737.446
474.505;   83.870;   -9.437;  751.703
475.094;   87.224;   -6.747;  806.570
475.683;   86.702;   -9.367;  797.699
476.272;   87.146;  -12.637;  730.632
476.861;   89.928;  -10.027;  706.754
477.449;   97.049;   -8.716;  728.487
478.038;   90.578;   -9.577;  692.513
478.627;   92.418;   -9.718;  714.852
479.216;   98.711;   -8.947;  769.441
479.805;  101.609;   -6.256;  783.375
480.393;  101.753;   -7.937; 1008.945
480.982;  100.312;   -7.717;  874.501
481.571;  106.478;   -9.266;  858.333
482.159;  106.794;   -7.636;  705.386
482.748;  107.601;   -9.667;  821.385
483.336;  111.950;  -10.376;  858.209
483.925;  112.041;   -7.147;  774.373
484.513;  119.511;   -7.996;  758.962
485.102;  115.660;  -10.027;  810.965
485.690;  125.056;  -10.446; 1011.050
486.278;  127.190;   -8.446;  979.329
486.867;  126.744;   -6.356;  809.662
487.455;  128.963;   -9.136;  898.229
488.043;  130.505;  -10.646;  748.361
488.631;  139.397;   -7.456; 1005.079
489.220;  143.105;   -6.636;  908.626
489.808;  142.730;  -11.036;  741.415
490.396;  151.768;  -10.246;  914.645
490.984;  156.330;   -8.556;  830.161
491.572;  166.398;   -5.886;  940.315
492.160;  171.535;   -9.486;  919.081
492.748;  184.237;  -10.976;  884.341
493.336;  206.660;   -8.776; 1019.693
493.924;  232.778;   -5.465;  958.077
494.512;  260.250;   -9.986; 1066.638
495.100;  298.955;  -10.636; 1103.280
495.687;  354.267;  -10.885; 1206.373
496.275;  414.793;   -8.126; 1150.796
496.863;  486.058;  -10.586; 1281.171
497.451;  588.461;  -11.926; 1386.805
498.038;  716.447;  -10.885; 1556.729
498.626;  819.082;   -6.315; 1741.407
499.214;  962.668;   -7.326; 2016.609
499.801; 1163.437;  -11.906; 2220.633
500.389; 1402.874;  -10.466; 2312.494
500.976; 1716.940;   -5.236; 2744.849
501.564; 2139.456;   -8.936; 3148.565
502.151; 2521.285;  -13.176; 3515.999
502.738; 2982.034;  -10.646; 3971.274
503.326; 3360.492;   -9.525; 4403.796
503.913; 3742.759;  -10.856; 5161.749
504.500; 4104.178;  -11.586; 5986.420
505.088; 4521.028;  -10.336; 6381.201
505.675; 5044.349;   -6.355; 6925.547
506.262; 5759.390;   -9.046; 7619.060
506.849; 6435.108;  -10.416; 8733.969
507.436; 6897.547;  -10.305; 9790.121
508.023; 7496.591;   -5.496; 9985.472
508.610; 7739.540;   -7.856;10434.618
509.197; 8350.553;  -10.097;11198.435
509.784; 9697.703;  -10.886;12391.194
510.371;10674.957;   -9.315;13603.713
510.958;11369.771;   -9.936;14426.586
511.545;12157.717;   -9.326;15243.775
512.132;13119.630;  -10.075;15945.876
512.719;13826.256;   -7.796;16340.369
513.305;14730.258;  -10.606;18011.766
513.892;15586.529;  -11.486;19754.971
514.479;16916.734;   -9.126;20967.805
515.066;18131.836;   -6.026;22299.793
515.652;19253.363;   -8.466;22908.660
516.239;20659.539;  -10.886;23798.875
516.825;21847.742;  -11.496;25567.275
517.412;23103.920;   -5.796;28154.959
517.998;23664.291;  -10.506;28344.111
518.585;23469.924;  -10.076;27134.219
519.171;23925.656;   -8.315;27268.576
519.758;25558.670;   -8.596;28964.129
520.344;27234.113;   -8.466;30664.494
520.930;27095.104;  -11.006;32550.605
521.516;28786.242;  -10.495;35422.895
522.103;31201.674;   -5.526;38280.004
522.689;31869.947;   -8.746;37835.117
523.275;31068.455;  -11.376;37288.613
523.861;31782.045;  -11.156;37281.395
524.447;33048.902;   -8.135;37846.949
525.033;32829.465;   -7.896;38321.949
525.619;33018.055;  -12.476;38579.285
526.205;34563.984;   -9.516;40622.875
526.791;36548.480;   -6.926;42258.836
527.377;36270.770;   -8.346;42966.902
527.963;37477.707;   -8.717;42018.949
528.549;34880.477;  -11.016;42476.828
529.135;31442.924;   -8.536;41854.852
529.721;29296.619;   -9.666;41237.711
530.306;30189.219;  -10.066;41259.445
530.892;33084.691;  -11.356;41506.047
531.478;36351.039;   -6.596;43559.613
532.063;39757.238;   -8.836;47695.563
532.649;39801.016;  -10.047;50808.324
533.235;40599.773;   -9.746;51787.500
533.820;41409.887;   -6.566;52145.035
534.406;42272.656;  -10.817;51133.488
534.991;41374.047;   -9.416;49996.805
535.576;39021.996;   -9.036;48882.852
536.162;37506.207;   -6.156;46942.285
536.747;35334.242;  -11.607;45711.746
537.333;35323.965;  -11.787;48510.180
537.918;37769.758;  -12.437;50439.891
538.503;41757.344;   -7.196;50863.711
539.088;44485.363;  -10.556;50906.922
539.673;47025.906;   -8.767;52621.965
540.259;47410.813;  -10.026;52368.094
540.844;44445.379;   -7.416;50879.109
541.429;45437.305;   -9.467;52077.777
542.014;48577.258;   -9.527;52716.695
542.599;47811.551;   -9.946;52363.281
543.184;45385.574;   -7.927;53187.137
543.769;47071.848;   -9.297;54697.605
544.354;46232.543;  -10.127;53913.914
544.938;44909.141;   -9.267;49680.164
545.523;46653.926;   -6.506;47386.277
546.108;48841.559;   -9.787;49151.949
546.693;51046.563;  -11.587;51384.637
547.278;51136.273;  -10.986;51853.254
547.862;47890.039;   -8.206;51173.750
548.447;43096.262;  -10.067;51691.395
549.031;42876.273;   -9.637;52456.703
549.616;48002.906;   -9.926;52714.516
550.201;46675.422;   -6.347;52414.598
550.785;47773.809;   -7.917;52355.059
551.370;47180.371;  -10.867;54589.453
551.954;47445.961;   -9.047;58267.348
552.538;48063.789;   -7.827;59062.176
553.123;46353.121;  -10.287;58115.285
553.707;44624.746;  -12.178;56556.285
554.291;45852.410;   -8.717;56201.668
554.876;47798.211;   -7.457;55335.762
555.460;48099.945;  -10.387;54155.703
556.044;49258.559;   -9.618;53721.484
556.628;47711.305;  -11.567;53731.016
557.212;46226.918;   -8.097;54312.531
557.796;44702.242;  -11.077;53797.773
558.380;44352.621;  -11.108;56145.984
558.964;44811.289;   -9.057;57277.930
559.548;45702.000;   -6.977;56459.641
560.132;44291.418;  -11.457;54434.543
560.716;43227.848;  -11.378;54800.617
561.300;44530.184;   -9.577;57606.945
561.884;45654.949;   -7.127;58972.445
562.467;44163.883;   -7.118;57327.570
563.051;43074.469;  -13.358;54962.434
563.635;43740.059;  -10.178;52594.473
564.219;44469.688;   -7.837;50610.410
564.802;45386.188;  -11.398;49551.180
565.386;45341.367;  -12.788;48370.953
565.969;44776.828;   -9.077;48178.871
566.553;44588.352;   -6.207;49957.305
567.136;44694.754;   -8.568;50369.594
567.720;40603.926;  -11.868;49492.004
568.303;38771.004;   -8.268;50616.352
568.887;38996.824;   -8.698;50727.148
569.470;39069.047;   -6.808;51698.379
570.053;37565.266;  -13.188;52122.078
570.637;35985.137;  -12.037;52536.438
571.220;35673.418;   -8.577;51186.098
571.803;36008.629;   -8.498;51032.762
572.386;38473.363;  -10.498;49609.887
572.969;40887.375;   -9.388;48285.926
573.552;38903.453;   -8.338;47624.285
574.135;37758.797;   -8.518;45498.641
574.718;35350.508;  -13.628;41970.434
575.301;33968.168;  -10.893;41447.137
575.884;32585.824;   -8.158;40923.836
576.467;34080.680;  -10.328;45267.723
577.050;36654.188;  -13.058;48175.543
577.633;37963.273;   -9.458;47729.328
578.216;36670.293;   -8.928;47579.793
578.799;35690.754;   -9.358;47820.996
579.381;34241.410;  -11.388;48115.551
579.964;32784.449;  -11.718;47333.766
580.547;34493.172;   -8.588;46668.969
581.129;35777.145;   -8.859;44466.141
581.712;36393.223;  -10.729;44164.922
582.294;36948.387;  -11.118;46477.855
582.877;36713.371;   -5.218;48244.254
583.459;34200.543;   -8.679;47437.895
584.042;32475.682;  -10.709;46943.219
584.624;33530.863;  -11.669;46792.227
585.206;33090.402;   -8.218;46557.250
585.789;33370.313;  -10.569;45793.773
586.371;36106.770;  -11.859;43836.391
586.953;36327.445;  -10.719;42972.492
587.536;37517.070;   -7.198;42487.211
588.118;36952.750;   -8.720;42086.414
588.700;33792.484;  -10.439;43389.930
589.282;33199.164;   -9.198;43646.039
589.864;34154.449;   -9.199;43438.109
590.446;34852.285;  -11.319;43151.926
591.028;34450.398;  -11.159;42781.867
591.610;33594.168;  -11.779;42839.098
592.192;31370.143;   -7.668;42820.402
592.774;29963.008;  -11.949;40724.277
593.356;28785.830;  -12.129;39874.789
593.937;27938.180;  -10.669;39980.648
594.519;30243.383;   -6.509;42069.633
595.101;32224.461;  -10.849;42976.031
