
Integration time [ms]:   3.276
Averaging Nr. [scans]: 1000
Smoothing Nr. [pixels]: 0
Data measured with spectrometer [name]: 7414430SP
Wave   ;Sample   ;Dark     ;Reference
[nm]   ;[counts] ;[counts] ;[counts] 

288.544;  148.554;    7.793;  793.890
289.143;  152.581;    7.462;  681.602
289.742;  154.182;    8.602;  828.814
290.341;  140.497;    1.321;  789.841
290.940;  127.303;   -0.709;  730.702
291.538;  128.943;    0.881;  881.108
292.137;  129.626;    0.122;  792.581
292.736;  134.253;   -1.929;  975.101
293.335;  131.119;   -8.229;  735.086
293.934;  130.579;   -5.279;  781.677
294.532;  130.034;   -1.369; 1031.958
295.131;  116.198;   -7.641;  834.394
295.730;  115.051;   -8.420;  809.588
296.328;  114.582;   -5.611;  783.442
296.927;  115.352;   -5.781;  779.652
297.525;  116.495;   -6.361;  781.236
298.124;  106.529;  -11.382;  654.009
298.722;  109.806;   -7.641;  761.933
299.321;  108.252;   -6.811;  708.597
299.919;  106.470;   -6.991;  751.918
300.518;  102.822;  -10.362;  689.338
301.116;  104.968;   -9.581;  691.381
301.715;  104.882;   -4.891;  730.222
302.313;  104.155;   -8.801;  704.943
302.911;   99.298;   -8.522;  733.830
303.509;  104.028;   -6.171;  925.627
304.108;  102.317;   -7.311;  760.383
304.706;  101.470;   -8.321;  801.664
305.304;   95.670;  -10.222;  796.707
305.902;  101.026;   -6.021;  784.484
306.500;   96.998;   -4.971;  728.200
307.098;   95.814;   -7.061;  746.560
307.696;   92.486;   -8.801;  780.432
308.294;   93.732;   -6.411;  731.359
308.892;   95.775;   -2.901;  759.769
309.490;   92.939;   -5.041;  712.161
310.088;   89.493;   -5.002;  788.444
310.686;   94.273;   -2.041;  821.749
311.284;   90.364;   -2.351;  766.040
311.882;   88.059;   -4.422;  731.225
312.480;   85.018;   -4.192;  697.167
313.078;   86.119;   -1.172;  808.331
313.675;   87.531;   -2.601;  691.600
314.273;   82.681;   -1.312;  797.837
314.871;   81.620;   -3.942;  589.829
315.468;   79.216;   -2.802;  652.090
316.066;   83.329;   -0.701;  694.427
316.664;   76.375;   -4.362;  656.351
317.261;   78.881;   -2.872;  910.128
317.859;   74.469;   -2.022;  768.735
318.456;   75.755;   -0.531;  830.096
319.054;   71.654;   -3.912;  787.828
319.651;   70.795;   -4.752;  759.928
320.249;   68.487;   -2.602;  810.188
320.846;   67.185;   -0.821;  714.286
321.443;   64.079;   -4.642;  832.135
322.041;   61.421;   -5.002;  812.315
322.638;   58.816;   -3.982;  701.456
323.235;   60.844;   -3.411;  665.683
323.833;   57.119;   -7.361;  740.354
324.430;   53.301;   -8.611;  615.900
325.027;   53.428;   -4.061;  876.855
325.624;   53.910;   -4.031;  644.532
326.221;   51.320;   -7.481;  689.717
326.818;   49.954;   -5.281;  818.332
327.415;   53.391;   -7.460;  748.828
328.012;   53.479;   -5.510;  690.585
328.609;   52.436;   -7.880;  731.389
329.206;   49.147;   -8.331;  778.621
329.803;   48.826;   -5.121;  737.841
330.400;   51.872;   -4.510;  704.260
330.997;   54.424;   -6.441;  817.147
331.594;   52.227;   -8.831;  788.185
332.191;   57.329;   -7.621;  728.722
332.787;   60.499;   -4.591;  844.463
333.384;   59.562;   -7.412;  763.093
333.981;   57.321;   -8.293;  815.687
334.578;   60.210;   -7.052;  708.378
335.174;   63.469;   -3.102;  731.469
335.771;   63.930;   -5.943;  836.456
336.367;   59.672;   -7.393;  710.631
336.964;   63.589;   -4.063;  793.266
337.561;   61.078;   -3.813;  731.112
338.157;   57.105;   -4.654;  911.916
338.754;   54.965;   -7.934;  796.589
339.350;   52.629;   -4.414;  722.493
339.946;   55.695;   -4.664;  773.135
340.543;   47.740;   -6.375;  846.136
341.139;   41.905;   -9.815;  720.836
341.735;   39.308;   -4.526;  772.593
342.332;   38.092;   -4.895;  691.472
342.928;   38.415;   -4.295;  795.394
343.524;   32.377;   -5.476;  761.684
344.120;   28.852;   -5.856;  738.562
344.716;   32.906;   -2.155;  723.717
345.313;   30.343;   -6.275;  795.342
345.909;   24.262;   -8.815;  627.336
346.505;   26.162;   -5.305;  740.247
347.101;   26.880;   -2.674;  827.864
347.697;   27.666;   -4.344;  785.398
348.293;   21.475;   -9.975;  627.244
348.889;   21.891;   -5.774;  745.914
349.485;   22.554;   -5.004;  688.205
350.081;   22.527;   -4.704;  772.592
350.676;   17.793;   -6.635;  691.606
351.272;   21.222;   -4.504;  809.530
351.868;   22.558;   -3.914;  780.497
352.464;   19.603;   -9.044;  723.932
353.059;   14.947;   -8.314;  646.017
353.655;   18.014;   -7.024;  777.063
354.251;   19.567;   -5.343;  759.845
354.846;   14.281;   -8.604;  740.646
355.442;   11.488;   -6.945;  753.071
356.038;   13.961;   -7.564;  751.708
356.633;   14.551;   -5.814;  728.594
357.229;   12.898;   -7.364;  724.757
357.824;    9.637;   -8.024;  703.600
358.420;    9.120;   -9.384;  679.726
359.015;    9.955;   -5.104;  695.357
359.610;   11.253;   -6.854;  763.920
360.206;    4.410;  -10.185;  603.240
360.801;    7.788;   -7.054;  646.503
361.396;    9.324;   -5.034;  725.975
361.992;    5.966;   -8.284;  668.220
362.587;    2.625;   -8.625;  670.160
363.182;    4.238;   -7.674;  689.631
363.777;    5.308;   -5.164;  738.242
364.372;    4.754;   -8.604;  737.314
364.967;    1.218;   -9.055;  680.744
365.563;    5.271;   -6.114;  815.567
366.158;    2.396;   -5.814;  685.161
366.753;    3.428;   -7.854;  649.263
367.348;    1.503;   -7.804;  746.056
367.942;    1.366;   -7.954;  697.298
368.537;    1.089;   -4.984;  754.245
369.132;    0.728;   -8.564;  703.428
369.727;   -3.648;   -8.855;  638.079
370.322;   -2.159;   -6.245;  580.186
370.917;   -2.222;   -6.425;  710.646
371.511;    0.719;   -6.294;  861.834
372.106;   -3.421;   -7.685;  776.964
372.701;   -6.390;   -7.335;  585.988
373.296;   -0.990;   -4.564;  863.135
373.890;   -5.057;  -10.235;  647.840
374.485;   -7.615;   -7.885;  691.199
375.079;   -3.921;   -7.324;  738.685
375.674;   -1.256;   -3.494;  812.970
376.268;   -6.016;   -8.525;  691.759
376.863;  -13.111;  -10.086;  580.327
377.457;   -6.943;   -7.025;  662.490
378.052;   -7.610;   -3.585;  764.884
378.646;   -8.765;   -7.595;  741.167
379.240;   -9.443;   -8.335;  721.176
379.835;   -8.406;   -5.785;  636.978
380.429;   -9.513;   -4.335;  562.557
381.023;  -10.527;   -6.805;  779.205
381.617;  -13.382;   -9.195;  680.106
382.212;   -8.835;   -6.905;  685.303
382.806;   -8.166;   -3.745;  760.690
383.400;  -12.176;   -7.745;  672.281
383.994;  -13.724;   -9.765;  664.870
384.588;   -9.789;   -6.564;  697.701
385.182;   -8.057;   -5.344;  726.624
385.776;   -9.401;   -8.514;  706.875
386.370;  -13.172;   -9.555;  681.968
386.964;  -12.691;   -8.715;  684.155
387.558;  -10.589;   -6.174;  598.360
388.152;  -14.083;   -8.725;  681.959
388.745;  -12.273;   -7.965;  814.707
389.339;   -9.850;   -5.924;  747.642
389.933;   -9.391;   -5.524;  695.370
390.527;  -10.336;   -7.114;  859.029
391.120;  -17.202;  -10.725;  595.318
391.714;  -14.000;   -8.035;  711.633
392.308;  -10.367;   -3.574;  780.253
392.901;  -13.602;   -7.245;  642.460
393.495;  -16.474;   -9.285;  595.414
394.089;  -13.982;   -5.895;  760.452
394.682;  -14.374;   -4.295;  697.188
395.275;  -14.784;   -9.875;  719.927
395.869;  -16.618;   -8.485;  667.314
396.462;  -15.203;   -7.455;  616.609
397.056;  -10.645;   -5.424;  776.621
397.649;  -15.298;   -6.605;  731.575
398.242;  -13.012;   -8.224;  712.645
398.836;  -13.343;   -7.474;  766.408
399.429;  -12.937;   -7.094;  631.041
400.022;  -16.336;   -9.475;  665.902
400.615;  -13.814;   -7.145;  805.609
401.208;  -13.063;   -7.174;  691.451
401.802;  -14.865;   -5.515;  699.329
402.395;  -16.176;   -9.875;  683.502
402.988;  -17.566;   -8.845;  696.627
403.581;  -13.643;   -8.874;  646.878
404.174;  -11.797;   -5.324;  686.568
404.767;  -13.694;   -9.575;  638.583
405.360;  -17.273;  -10.965;  621.445
405.953;  -11.126;   -8.764;  759.034
406.545;  -10.388;   -7.514;  725.342
407.138;  -14.306;  -10.025;  618.350
407.731;  -13.683;  -10.034;  613.303
408.324;  -10.137;   -9.374;  660.554
408.917;  -11.527;   -6.534;  681.864
409.509;  -12.640;   -8.004;  740.396
410.102;  -14.254;   -9.875;  643.948
410.695;   -9.529;   -8.604;  665.758
411.287;   -9.698;   -6.794;  599.821
411.880;  -10.391;   -9.334;  585.421
412.472;  -14.075;  -10.254;  613.092
413.065;  -12.062;   -6.714;  629.408
413.657;   -9.119;   -7.234;  576.678
414.250;   -8.512;  -10.544;  646.681
414.842;  -10.970;   -9.744;  676.353
415.434;   -8.958;   -6.994;  570.463
416.027;   -4.404;   -5.893;  652.196
416.619;   -5.839;   -7.264;  713.400
417.211;   -7.675;  -10.374;  599.352
417.804;   -4.140;   -7.993;  628.499
418.396;   -7.257;   -7.234;  607.643
418.988;   -5.461;   -9.443;  659.238
419.580;   -8.759;  -10.724;  568.276
420.172;   -6.591;  -10.323;  536.196
420.764;   -2.311;   -8.793;  672.482
421.356;   -2.877;  -11.143;  636.898
421.948;   -4.643;   -8.293;  677.661
422.540;    0.229;   -7.893;  680.027
423.132;    0.288;   -7.082;  600.641
423.724;   -2.900;   -8.653;  561.267
424.316;   -1.712;  -10.213;  621.345
424.908;    1.980;   -9.762;  591.517
425.500;    3.256;   -5.572;  647.978
426.092;    3.522;   -8.422;  648.268
426.683;    2.039;   -9.283;  684.836
427.275;    4.351;   -7.852;  641.471
427.867;    6.620;   -5.272;  668.948
428.458;    7.664;   -7.682;  732.344
429.050;    5.143;  -10.612;  680.749
429.642;    7.568;   -9.882;  743.124
430.233;    9.033;   -6.962;  569.356
430.825;    9.132;   -6.842;  724.809
431.416;    6.609;   -9.672;  698.241
432.008;    9.476;   -6.552;  651.723
432.599;   11.201;   -6.891;  656.073
433.190;    8.325;  -10.912;  637.670
433.782;    6.796;  -11.172;  590.395
434.373;   14.199;   -6.061;  884.765
434.964;   14.016;   -8.251;  602.920
435.556;   11.401;   -9.722;  634.537
436.147;   13.446;   -9.082;  758.490
436.738;   13.728;   -8.041;  701.099
437.329;   19.863;   -7.341;  721.723
437.920;   12.315;   -8.162;  666.688
438.511;   11.998;  -11.802;  564.526
439.103;   18.069;  -10.191;  623.998
439.694;   20.633;   -7.601;  681.583
440.285;   22.087;   -8.541;  764.432
440.876;   18.818;   -9.751;  845.738
441.466;   18.266;   -9.401;  575.162
442.057;   24.564;   -7.760;  665.814
442.648;   23.131;   -9.971;  746.255
443.239;   20.852;  -11.001;  620.477
443.830;   25.430;   -7.990;  704.958
444.421;   28.152;   -7.910;  655.474
445.011;   24.485;   -8.131;  693.619
445.602;   23.966;   -7.111;  743.126
446.193;   25.389;  -10.920;  488.117
446.783;   30.441;   -6.500;  640.397
447.374;   25.873;   -8.671;  692.759
447.964;   26.144;  -10.781;  713.770
448.555;   34.483;   -9.650;  822.742
449.145;   31.097;   -8.660;  662.853
449.736;   32.162;   -8.990;  803.179
450.326;   32.126;   -9.500;  713.626
450.917;   37.028;   -8.680;  675.324
451.507;   35.992;   -7.520;  600.661
452.097;   36.734;   -8.590;  746.267
452.688;   37.256;  -11.340;  742.160
453.278;   36.749;  -10.100;  566.840
453.868;   42.699;   -6.019;  793.550
454.458;   39.519;   -9.440;  651.141
455.048;   39.080;  -10.560;  711.783
455.639;   41.307;  -11.799;  567.096
456.229;   45.096;   -6.899;  710.694
456.819;   47.101;   -7.389;  751.158
457.409;   46.927;  -11.119;  773.993
457.999;   49.239;   -9.289;  737.505
458.589;   49.779;   -6.139;  686.606
459.179;   50.352;   -8.729;  717.658
459.769;   47.382;   -9.789;  627.099
460.358;   52.096;  -10.259;  797.262
460.948;   52.511;   -7.299;  689.503
461.538;   54.908;  -10.289;  660.677
462.128;   52.043;  -11.269;  664.934
462.717;   58.740;   -9.368;  710.326
463.307;   62.264;   -7.908;  705.846
463.897;   57.673;   -9.599;  656.942
464.486;   56.572;   -9.769;  837.128
465.076;   61.317;   -8.048;  733.776
465.666;   64.189;   -9.358;  652.900
466.255;   62.498;   -7.919;  785.651
466.845;   61.244;  -11.689;  666.749
467.434;   63.783;   -7.818;  725.873
468.023;   65.379;   -7.678;  658.357
468.613;   64.129;  -10.939;  713.946
469.202;   66.795;  -10.118;  646.507
469.791;   70.418;   -9.108;  737.811
470.381;   73.044;   -6.058;  742.813
470.970;   73.447;  -10.428;  711.099
471.559;   72.488;  -10.268;  733.291
472.148;   75.860;   -8.448;  675.737
472.738;   78.831;   -6.917;  765.466
473.327;   78.000;  -11.978;  637.529
473.916;   77.719;  -11.888;  737.446
474.505;   81.166;   -9.437;  751.703
475.094;   84.804;   -6.747;  806.570
475.683;   84.959;   -9.367;  797.699
476.272;   84.882;  -12.637;  730.632
476.861;   87.551;  -10.027;  706.754
477.449;   94.594;   -8.716;  728.487
478.038;   88.933;   -9.577;  692.513
478.627;   89.845;   -9.718;  714.852
479.216;   95.204;   -8.947;  769.441
479.805;   98.905;   -6.256;  783.375
480.393;   99.622;   -7.937; 1008.945
480.982;   98.307;   -7.717;  874.501
481.571;  104.091;   -9.266;  858.333
482.159;  104.678;   -7.636;  705.386
482.748;  104.935;   -9.667;  821.385
483.336;  108.925;  -10.376;  858.209
483.925;  110.268;   -7.147;  774.373
484.513;  116.872;   -7.996;  758.962
485.102;  113.143;  -10.027;  810.965
485.690;  121.788;  -10.446; 1011.050
486.278;  122.553;   -8.446;  979.329
486.867;  124.108;   -6.356;  809.662
487.455;  126.157;   -9.136;  898.229
488.043;  127.300;  -10.646;  748.361
488.631;  135.665;   -7.456; 1005.079
489.220;  139.711;   -6.636;  908.626
489.808;  139.409;  -11.036;  741.415
490.396;  147.513;  -10.246;  914.645
490.984;  152.177;   -8.556;  830.161
491.572;  161.331;   -5.886;  940.315
492.160;  168.018;   -9.486;  919.081
492.748;  178.058;  -10.976;  884.341
493.336;  200.277;   -8.776; 1019.693
493.924;  226.736;   -5.465;  958.077
494.512;  251.216;   -9.986; 1066.638
495.100;  286.102;  -10.636; 1103.280
495.687;  337.635;  -10.885; 1206.373
496.275;  397.861;   -8.126; 1150.796
496.863;  466.611;  -10.586; 1281.171
497.451;  564.534;  -11.926; 1386.805
498.038;  688.410;  -10.885; 1556.729
498.626;  791.266;   -6.315; 1741.407
499.214;  932.631;   -7.326; 2016.609
499.801; 1121.524;  -11.906; 2220.633
500.389; 1357.279;  -10.466; 2312.494
500.976; 1652.695;   -5.236; 2744.849
501.564; 2067.754;   -8.936; 3148.565
502.151; 2425.345;  -13.176; 3515.999
502.738; 2860.127;  -10.646; 3971.274
503.326; 3231.372;   -9.525; 4403.796
503.913; 3600.377;  -10.856; 5161.749
504.500; 3958.145;  -11.586; 5986.420
505.088; 4377.810;  -10.336; 6381.201
505.675; 4882.104;   -6.355; 6925.547
506.262; 5573.820;   -9.046; 7619.060
506.849; 6264.123;  -10.416; 8733.969
507.436; 6729.508;  -10.305; 9790.121
508.023; 7302.117;   -5.496; 9985.472
508.610; 7551.061;   -7.856;10434.618
509.197; 8157.971;  -10.097;11198.435
509.784; 9481.817;  -10.886;12391.194
510.371;10496.436;   -9.315;13603.713
510.958;11218.637;   -9.936;14426.586
511.545;11974.657;   -9.326;15243.775
512.132;12802.034;  -10.075;15945.876
512.719;13370.274;   -7.796;16340.369
513.305;14292.514;  -10.606;18011.766
513.892;15058.689;  -11.486;19754.971
514.479;16375.900;   -9.126;20967.805
515.066;17807.148;   -6.026;22299.793
515.652;19083.859;   -8.466;22908.660
516.239;20305.805;  -10.886;23798.875
516.825;21316.553;  -11.496;25567.275
517.412;22352.279;   -5.796;28154.959
517.998;22978.436;  -10.506;28344.111
518.585;23061.686;  -10.076;27134.219
519.171;23581.781;   -8.315;27268.576
519.758;25026.535;   -8.596;28964.129
520.344;26785.658;   -8.466;30664.494
520.930;26753.609;  -11.006;32550.605
521.516;28117.516;  -10.495;35422.895
522.103;30384.473;   -5.526;38280.004
522.689;30947.975;   -8.746;37835.117
523.275;30408.318;  -11.376;37288.613
523.861;31608.248;  -11.156;37281.395
524.447;33056.070;   -8.135;37846.949
525.033;32937.367;   -7.896;38321.949
525.619;33174.480;  -12.476;38579.285
526.205;34716.840;   -9.516;40622.875
526.791;36980.336;   -6.926;42258.836
527.377;37104.129;   -8.346;42966.902
527.963;38652.121;   -8.717;42018.949
528.549;37214.402;  -11.016;42476.828
529.135;35917.027;   -8.536;41854.852
529.721;35260.371;   -9.666;41237.711
530.306;34596.570;  -10.066;41259.445
530.892;34428.598;  -11.356;41506.047
531.478;35806.703;   -6.596;43559.613
532.063;38783.688;   -8.836;47695.563
532.649;39291.023;  -10.047;50808.324
533.235;40155.480;   -9.746;51787.500
533.820;40804.445;   -6.566;52145.035
534.406;42302.684;  -10.817;51133.488
534.991;42101.105;   -9.416;49996.805
535.576;40696.324;   -9.036;48882.852
536.162;41160.477;   -6.156;46942.285
536.747;42091.203;  -11.607;45711.746
537.333;45701.609;  -11.787;48510.180
537.918;48601.688;  -12.437;50439.891
538.503;47207.234;   -7.196;50863.711
539.088;43860.973;  -10.556;50906.922
539.673;43769.477;   -8.767;52621.965
540.259;43986.324;  -10.026;52368.094
540.844;41472.023;   -7.416;50879.109
541.429;42695.199;   -9.467;52077.777
542.014;45388.809;   -9.527;52716.695
542.599;44736.969;   -9.946;52363.281
543.184;42479.082;   -7.927;53187.137
543.769;43895.070;   -9.297;54697.605
544.354;43448.309;  -10.127;53913.914
544.938;42268.566;   -9.267;49680.164
545.523;44044.688;   -6.506;47386.277
546.108;46656.547;   -9.787;49151.949
546.693;48656.738;  -11.587;51384.637
547.278;48527.969;  -10.986;51853.254
547.862;45655.492;   -8.206;51173.750
548.447;41224.406;  -10.067;51691.395
549.031;40910.883;   -9.637;52456.703
549.616;45689.414;   -9.926;52714.516
550.201;44914.980;   -6.347;52414.598
550.785;46108.133;   -7.917;52355.059
551.370;45259.004;  -10.867;54589.453
551.954;44978.035;   -9.047;58267.348
552.538;45638.469;   -7.827;59062.176
553.123;44020.211;  -10.287;58115.285
553.707;42078.992;  -12.178;56556.285
554.291;43625.141;   -8.717;56201.668
554.876;45897.230;   -7.457;55335.762
555.460;45974.254;  -10.387;54155.703
556.044;46894.715;   -9.618;53721.484
556.628;45549.383;  -11.567;53731.016
557.212;44314.293;   -8.097;54312.531
557.796;42812.086;  -11.077;53797.773
558.380;42763.273;  -11.108;56145.984
558.964;43203.684;   -9.057;57277.930
559.548;44337.590;   -6.977;56459.641
560.132;42803.957;  -11.457;54434.543
560.716;41439.313;  -11.378;54800.617
561.300;42504.340;   -9.577;57606.945
561.884;43657.715;   -7.127;58972.445
562.467;42044.336;   -7.118;57327.570
563.051;41260.324;  -13.358;54962.434
563.635;42252.039;  -10.178;52594.473
564.219;42675.078;   -7.837;50610.410
564.802;43572.102;  -11.398;49551.180
565.386;43399.984;  -12.788;48370.953
565.969;42655.254;   -9.077;48178.871
566.553;42076.820;   -6.207;49957.305
567.136;42705.039;   -8.568;50369.594
567.720;39140.789;  -11.868;49492.004
568.303;37205.324;   -8.268;50616.352
568.887;37283.301;   -8.698;50727.148
569.470;37473.805;   -6.808;51698.379
570.053;36083.832;  -13.188;52122.078
570.637;34495.660;  -12.037;52536.438
571.220;34383.027;   -8.577;51186.098
571.803;34967.992;   -8.498;51032.762
572.386;37037.656;  -10.498;49609.887
572.969;39359.332;   -9.388;48285.926
573.552;37623.219;   -8.338;47624.285
574.135;36375.875;   -8.518;45498.641
574.718;34078.992;  -13.628;41970.434
575.301;32950.496;  -10.893;41447.137
575.884;31821.998;   -8.158;40923.836
576.467;32877.289;  -10.328;45267.723
577.050;34532.355;  -13.058;48175.543
577.633;35311.031;   -9.458;47729.328
578.216;33781.469;   -8.928;47579.793
578.799;32821.922;   -9.358;47820.996
579.381;32201.652;  -11.388;48115.551
579.964;31256.680;  -11.718;47333.766
580.547;33333.348;   -8.588;46668.969
581.129;34742.480;   -8.859;44466.141
581.712;35693.262;  -10.729;44164.922
582.294;36232.602;  -11.118;46477.855
582.877;35906.855;   -5.218;48244.254
583.459;33537.887;   -8.679;47437.895
584.042;31598.777;  -10.709;46943.219
584.624;32085.598;  -11.669;46792.227
585.206;31601.617;   -8.218;46557.250
585.789;31539.068;  -10.569;45793.773
586.371;34044.559;  -11.859;43836.391
586.953;34236.309;  -10.719;42972.492
587.536;34929.773;   -7.198;42487.211
588.118;33909.137;   -8.720;42086.414
588.700;28894.010;  -10.439;43389.930
589.282;26485.580;   -9.198;43646.039
589.864;27488.705;   -9.199;43438.109
590.446;30796.523;  -11.319;43151.926
591.028;33050.145;  -11.159;42781.867
591.610;33182.336;  -11.779;42839.098
592.192;31035.967;   -7.668;42820.402
592.774;29590.182;  -11.949;40724.277
593.356;28390.064;  -12.129;39874.789
593.937;27391.137;  -10.669;39980.648
594.519;29573.262;   -6.509;42069.633
595.101;31634.986;  -10.849;42976.031
