
Integration time [ms]:   3.276
Averaging Nr. [scans]: 1000
Smoothing Nr. [pixels]: 0
Data measured with spectrometer [name]: 7414430SP
Wave   ;Sample   ;Dark     ;Reference
[nm]   ;[counts] ;[counts] ;[counts] 

288.544;  151.316;    7.793;  793.890
289.143;  153.993;    7.462;  681.602
289.742;  154.898;    8.602;  828.814
290.341;  142.939;    1.321;  789.841
290.940;  133.215;   -0.709;  730.702
291.538;  135.055;    0.881;  881.108
292.137;  134.471;    0.122;  792.581
292.736;  137.259;   -1.929;  975.101
293.335;  133.476;   -8.229;  735.086
293.934;  133.410;   -5.279;  781.677
294.532;  133.111;   -1.369; 1031.958
295.131;  120.092;   -7.641;  834.394
295.730;  119.958;   -8.420;  809.588
296.328;  118.417;   -5.611;  783.442
296.927;  118.747;   -5.781;  779.652
297.525;  118.876;   -6.361;  781.236
298.124;  108.965;  -11.382;  654.009
298.722;  113.801;   -7.641;  761.933
299.321;  112.754;   -6.811;  708.597
299.919;  109.575;   -6.991;  751.918
300.518;  105.096;  -10.362;  689.338
301.116;  106.453;   -9.581;  691.381
301.715;  106.954;   -4.891;  730.222
302.313;  106.874;   -8.801;  704.943
302.911;  102.091;   -8.522;  733.830
303.509;  106.179;   -6.171;  925.627
304.108;  103.684;   -7.311;  760.383
304.706;  104.582;   -8.321;  801.664
305.304;   98.456;  -10.222;  796.707
305.902;  102.925;   -6.021;  784.484
306.500;   99.787;   -4.971;  728.200
307.098;   97.771;   -7.061;  746.560
307.696;   96.276;   -8.801;  780.432
308.294;   96.987;   -6.411;  731.359
308.892;   97.860;   -2.901;  759.769
309.490;   94.359;   -5.041;  712.161
310.088;   91.711;   -5.002;  788.444
310.686;   95.939;   -2.041;  821.749
311.284;   91.785;   -2.351;  766.040
311.882;   90.118;   -4.422;  731.225
312.480;   87.302;   -4.192;  697.167
313.078;   88.220;   -1.172;  808.331
313.675;   89.716;   -2.601;  691.600
314.273;   85.079;   -1.312;  797.837
314.871;   83.058;   -3.942;  589.829
315.468;   81.647;   -2.802;  652.090
316.066;   85.386;   -0.701;  694.427
316.664;   78.173;   -4.362;  656.351
317.261;   80.860;   -2.872;  910.128
317.859;   76.332;   -2.022;  768.735
318.456;   77.353;   -0.531;  830.096
319.054;   73.865;   -3.912;  787.828
319.651;   71.977;   -4.752;  759.928
320.249;   70.340;   -2.602;  810.188
320.846;   68.921;   -0.821;  714.286
321.443;   65.768;   -4.642;  832.135
322.041;   62.094;   -5.002;  812.315
322.638;   61.158;   -3.982;  701.456
323.235;   62.519;   -3.411;  665.683
323.833;   60.020;   -7.361;  740.354
324.430;   54.019;   -8.611;  615.900
325.027;   54.959;   -4.061;  876.855
325.624;   54.781;   -4.031;  644.532
326.221;   53.166;   -7.481;  689.717
326.818;   51.909;   -5.281;  818.332
327.415;   54.618;   -7.460;  748.828
328.012;   53.620;   -5.510;  690.585
328.609;   52.617;   -7.880;  731.389
329.206;   51.007;   -8.331;  778.621
329.803;   50.792;   -5.121;  737.841
330.400;   53.684;   -4.510;  704.260
330.997;   55.632;   -6.441;  817.147
331.594;   54.048;   -8.831;  788.185
332.191;   58.545;   -7.621;  728.722
332.787;   62.454;   -4.591;  844.463
333.384;   61.065;   -7.412;  763.093
333.981;   58.611;   -8.293;  815.687
334.578;   61.218;   -7.052;  708.378
335.174;   64.354;   -3.102;  731.469
335.771;   64.606;   -5.943;  836.456
336.367;   61.803;   -7.393;  710.631
336.964;   65.058;   -4.063;  793.266
337.561;   63.916;   -3.813;  731.112
338.157;   59.689;   -4.654;  911.916
338.754;   57.017;   -7.934;  796.589
339.350;   56.187;   -4.414;  722.493
339.946;   57.518;   -4.664;  773.135
340.543;   50.272;   -6.375;  846.136
341.139;   44.809;   -9.815;  720.836
341.735;   41.764;   -4.526;  772.593
342.332;   41.407;   -4.895;  691.472
342.928;   41.456;   -4.295;  795.394
343.524;   34.274;   -5.476;  761.684
344.120;   30.422;   -5.856;  738.562
344.716;   33.874;   -2.155;  723.717
345.313;   31.813;   -6.275;  795.342
345.909;   26.152;   -8.815;  627.336
346.505;   28.306;   -5.305;  740.247
347.101;   29.471;   -2.674;  827.864
347.697;   29.157;   -4.344;  785.398
348.293;   23.211;   -9.975;  627.244
348.889;   23.418;   -5.774;  745.914
349.485;   24.249;   -5.004;  688.205
350.081;   25.004;   -4.704;  772.592
350.676;   19.827;   -6.635;  691.606
351.272;   22.713;   -4.504;  809.530
351.868;   23.663;   -3.914;  780.497
352.464;   20.698;   -9.044;  723.932
353.059;   16.699;   -8.314;  646.017
353.655;   19.390;   -7.024;  777.063
354.251;   21.153;   -5.343;  759.845
354.846;   15.591;   -8.604;  740.646
355.442;   13.319;   -6.945;  753.071
356.038;   14.552;   -7.564;  751.708
356.633;   15.254;   -5.814;  728.594
357.229;   13.209;   -7.364;  724.757
357.824;   11.783;   -8.024;  703.600
358.420;   10.814;   -9.384;  679.726
359.015;   12.241;   -5.104;  695.357
359.610;   12.843;   -6.854;  763.920
360.206;    6.384;  -10.185;  603.240
360.801;    9.464;   -7.054;  646.503
361.396;   11.418;   -5.034;  725.975
361.992;    6.644;   -8.284;  668.220
362.587;    3.804;   -8.625;  670.160
363.182;    5.741;   -7.674;  689.631
363.777;    6.941;   -5.164;  738.242
364.372;    6.826;   -8.604;  737.314
364.967;    2.051;   -9.055;  680.744
365.563;    6.461;   -6.114;  815.567
366.158;    3.748;   -5.814;  685.161
366.753;    4.508;   -7.854;  649.263
367.348;    3.104;   -7.804;  746.056
367.942;    2.512;   -7.954;  697.298
368.537;    1.916;   -4.984;  754.245
369.132;    2.357;   -8.564;  703.428
369.727;   -2.368;   -8.855;  638.079
370.322;   -0.587;   -6.245;  580.186
370.917;   -0.898;   -6.425;  710.646
371.511;    2.051;   -6.294;  861.834
372.106;   -2.473;   -7.685;  776.964
372.701;   -5.580;   -7.335;  585.988
373.296;    0.572;   -4.564;  863.135
373.890;   -3.877;  -10.235;  647.840
374.485;   -6.493;   -7.885;  691.199
375.079;   -2.234;   -7.324;  738.685
375.674;   -1.559;   -3.494;  812.970
376.268;   -5.266;   -8.525;  691.759
376.863;  -11.120;  -10.086;  580.327
377.457;   -5.280;   -7.025;  662.490
378.052;   -7.075;   -3.585;  764.884
378.646;   -7.349;   -7.595;  741.167
379.240;   -8.255;   -8.335;  721.176
379.835;   -7.532;   -5.785;  636.978
380.429;   -9.575;   -4.335;  562.557
381.023;   -8.563;   -6.805;  779.205
381.617;  -11.217;   -9.195;  680.106
382.212;   -8.207;   -6.905;  685.303
382.806;   -7.832;   -3.745;  760.690
383.400;  -11.718;   -7.745;  672.281
383.994;  -12.169;   -9.765;  664.870
384.588;   -8.948;   -6.564;  697.701
385.182;   -7.179;   -5.344;  726.624
385.776;   -9.344;   -8.514;  706.875
386.370;  -12.545;   -9.555;  681.968
386.964;  -11.443;   -8.715;  684.155
387.558;   -9.420;   -6.174;  598.360
388.152;  -12.900;   -8.725;  681.959
388.745;  -10.671;   -7.965;  814.707
389.339;   -8.826;   -5.924;  747.642
389.933;   -8.974;   -5.524;  695.370
390.527;   -9.528;   -7.114;  859.029
391.120;  -15.786;  -10.725;  595.318
391.714;  -13.167;   -8.035;  711.633
392.308;   -9.894;   -3.574;  780.253
392.901;  -13.425;   -7.245;  642.460
393.495;  -15.520;   -9.285;  595.414
394.089;  -13.153;   -5.895;  760.452
394.682;  -13.647;   -4.295;  697.188
395.275;  -14.730;   -9.875;  719.927
395.869;  -15.708;   -8.485;  667.314
396.462;  -14.179;   -7.455;  616.609
397.056;  -10.114;   -5.424;  776.621
397.649;  -14.260;   -6.605;  731.575
398.242;  -12.328;   -8.224;  712.645
398.836;  -11.697;   -7.474;  766.408
399.429;  -12.682;   -7.094;  631.041
400.022;  -16.255;   -9.475;  665.902
400.615;  -13.683;   -7.145;  805.609
401.208;  -11.646;   -7.174;  691.451
401.802;  -14.028;   -5.515;  699.329
402.395;  -15.085;   -9.875;  683.502
402.988;  -16.292;   -8.845;  696.627
403.581;  -13.280;   -8.874;  646.878
404.174;  -10.637;   -5.324;  686.568
404.767;  -13.764;   -9.575;  638.583
405.360;  -16.953;  -10.965;  621.445
405.953;  -11.373;   -8.764;  759.034
406.545;   -9.977;   -7.514;  725.342
407.138;  -13.850;  -10.025;  618.350
407.731;  -13.017;  -10.034;  613.303
408.324;   -9.584;   -9.374;  660.554
408.917;  -10.450;   -6.534;  681.864
409.509;  -12.106;   -8.004;  740.396
410.102;  -14.712;   -9.875;  643.948
410.695;   -8.546;   -8.604;  665.758
411.287;   -9.192;   -6.794;  599.821
411.880;  -10.570;   -9.334;  585.421
412.472;  -13.809;  -10.254;  613.092
413.065;  -11.601;   -6.714;  629.408
413.657;   -7.866;   -7.234;  576.678
414.250;   -8.376;  -10.544;  646.681
414.842;  -10.792;   -9.744;  676.353
415.434;   -8.652;   -6.994;  570.463
416.027;   -4.385;   -5.893;  652.196
416.619;   -6.165;   -7.264;  713.400
417.211;   -7.497;  -10.374;  599.352
417.804;   -3.299;   -7.993;  628.499
418.396;   -7.356;   -7.234;  607.643
418.988;   -5.067;   -9.443;  659.238
419.580;   -8.612;  -10.724;  568.276
420.172;   -6.363;  -10.323;  536.196
420.764;   -2.001;   -8.793;  672.482
421.356;   -2.916;  -11.143;  636.898
421.948;   -4.482;   -8.293;  677.661
422.540;    0.413;   -7.893;  680.027
423.132;    0.189;   -7.082;  600.641
423.724;   -3.223;   -8.653;  561.267
424.316;   -1.311;  -10.213;  621.345
424.908;    2.019;   -9.762;  591.517
425.500;    2.662;   -5.572;  647.978
426.092;    3.175;   -8.422;  648.268
426.683;    2.145;   -9.283;  684.836
427.275;    4.368;   -7.852;  641.471
427.867;    6.831;   -5.272;  668.948
428.458;    7.622;   -7.682;  732.344
429.050;    5.111;  -10.612;  680.749
429.642;    7.574;   -9.882;  743.124
430.233;    8.332;   -6.962;  569.356
430.825;    9.776;   -6.842;  724.809
431.416;    5.734;   -9.672;  698.241
432.008;   10.311;   -6.552;  651.723
432.599;   10.681;   -6.891;  656.073
433.190;    8.178;  -10.912;  637.670
433.782;    6.654;  -11.172;  590.395
434.373;   14.039;   -6.061;  884.765
434.964;   13.050;   -8.251;  602.920
435.556;   11.605;   -9.722;  634.537
436.147;   12.384;   -9.082;  758.490
436.738;   13.259;   -8.041;  701.099
437.329;   18.478;   -7.341;  721.723
437.920;   11.854;   -8.162;  666.688
438.511;   11.208;  -11.802;  564.526
439.103;   18.546;  -10.191;  623.998
439.694;   20.086;   -7.601;  681.583
440.285;   20.742;   -8.541;  764.432
440.876;   18.151;   -9.751;  845.738
441.466;   18.069;   -9.401;  575.162
442.057;   23.272;   -7.760;  665.814
442.648;   21.912;   -9.971;  746.255
443.239;   20.143;  -11.001;  620.477
443.830;   24.957;   -7.990;  704.958
444.421;   27.522;   -7.910;  655.474
445.011;   23.589;   -8.131;  693.619
445.602;   22.218;   -7.111;  743.126
446.193;   25.118;  -10.920;  488.117
446.783;   29.761;   -6.500;  640.397
447.374;   25.260;   -8.671;  692.759
447.964;   25.278;  -10.781;  713.770
448.555;   34.014;   -9.650;  822.742
449.145;   30.374;   -8.660;  662.853
449.736;   31.559;   -8.990;  803.179
450.326;   30.435;   -9.500;  713.626
450.917;   35.980;   -8.680;  675.324
451.507;   35.457;   -7.520;  600.661
452.097;   35.135;   -8.590;  746.267
452.688;   36.188;  -11.340;  742.160
453.278;   36.348;  -10.100;  566.840
453.868;   40.866;   -6.019;  793.550
454.458;   39.547;   -9.440;  651.141
455.048;   38.466;  -10.560;  711.783
455.639;   40.863;  -11.799;  567.096
456.229;   44.440;   -6.899;  710.694
456.819;   45.694;   -7.389;  751.158
457.409;   46.044;  -11.119;  773.993
457.999;   48.572;   -9.289;  737.505
458.589;   48.369;   -6.139;  686.606
459.179;   48.114;   -8.729;  717.658
459.769;   46.838;   -9.789;  627.099
460.358;   50.773;  -10.259;  797.262
460.948;   50.782;   -7.299;  689.503
461.538;   53.487;  -10.289;  660.677
462.128;   50.488;  -11.269;  664.934
462.717;   56.714;   -9.368;  710.326
463.307;   60.729;   -7.908;  705.846
463.897;   55.855;   -9.599;  656.942
464.486;   54.920;   -9.769;  837.128
465.076;   58.848;   -8.048;  733.776
465.666;   62.470;   -9.358;  652.900
466.255;   60.519;   -7.919;  785.651
466.845;   60.074;  -11.689;  666.749
467.434;   62.887;   -7.818;  725.873
468.023;   63.801;   -7.678;  658.357
468.613;   61.730;  -10.939;  713.946
469.202;   66.198;  -10.118;  646.507
469.791;   69.809;   -9.108;  737.811
470.381;   72.165;   -6.058;  742.813
470.970;   71.841;  -10.428;  711.099
471.559;   71.316;  -10.268;  733.291
472.148;   73.956;   -8.448;  675.737
472.738;   76.772;   -6.917;  765.466
473.327;   76.167;  -11.978;  637.529
473.916;   75.552;  -11.888;  737.446
474.505;   79.795;   -9.437;  751.703
475.094;   84.349;   -6.747;  806.570
475.683;   83.270;   -9.367;  797.699
476.272;   83.588;  -12.637;  730.632
476.861;   86.059;  -10.027;  706.754
477.449;   92.692;   -8.716;  728.487
478.038;   87.100;   -9.577;  692.513
478.627;   88.464;   -9.718;  714.852
479.216;   94.777;   -8.947;  769.441
479.805;   98.456;   -6.256;  783.375
480.393;   98.069;   -7.937; 1008.945
480.982;   97.279;   -7.717;  874.501
481.571;  103.831;   -9.266;  858.333
482.159;  104.561;   -7.636;  705.386
482.748;  103.858;   -9.667;  821.385
483.336;  109.092;  -10.376;  858.209
483.925;  109.497;   -7.147;  774.373
484.513;  116.496;   -7.996;  758.962
485.102;  113.724;  -10.027;  810.965
485.690;  121.390;  -10.446; 1011.050
486.278;  123.780;   -8.446;  979.329
486.867;  125.663;   -6.356;  809.662
487.455;  128.714;   -9.136;  898.229
488.043;  129.691;  -10.646;  748.361
488.631;  139.290;   -7.456; 1005.079
489.220;  144.321;   -6.636;  908.626
489.808;  146.752;  -11.036;  741.415
490.396;  155.275;  -10.246;  914.645
490.984;  165.414;   -8.556;  830.161
491.572;  180.040;   -5.886;  940.315
492.160;  190.581;   -9.486;  919.081
492.748;  206.302;  -10.976;  884.341
493.336;  237.979;   -8.776; 1019.693
493.924;  284.281;   -5.465;  958.077
494.512;  343.741;   -9.986; 1066.638
495.100;  404.901;  -10.636; 1103.280
495.687;  501.714;  -10.885; 1206.373
496.275;  602.159;   -8.126; 1150.796
496.863;  700.769;  -10.586; 1281.171
497.451;  851.323;  -11.926; 1386.805
498.038;  983.052;  -10.885; 1556.729
498.626; 1162.226;   -6.315; 1741.407
499.214; 1448.640;   -7.326; 2016.609
499.801; 1780.361;  -11.906; 2220.633
500.389; 2175.811;  -10.466; 2312.494
500.976; 2497.962;   -5.236; 2744.849
501.564; 3051.050;   -8.936; 3148.565
502.151; 3842.932;  -13.176; 3515.999
502.738; 4443.371;  -10.646; 3971.274
503.326; 4896.777;   -9.525; 4403.796
503.913; 5252.200;  -10.856; 5161.749
504.500; 5807.000;  -11.586; 5986.420
505.088; 6485.738;  -10.336; 6381.201
505.675; 7423.949;   -6.355; 6925.547
506.262; 8020.216;   -9.046; 7619.060
506.849; 8352.238;  -10.416; 8733.969
507.436; 9155.015;  -10.305; 9790.121
508.023; 9746.095;   -5.496; 9985.472
508.610; 9679.603;   -7.856;10434.618
509.197;10406.571;  -10.097;11198.435
509.784;11899.260;  -10.886;12391.194
510.371;13440.550;   -9.315;13603.713
510.958;14785.807;   -9.936;14426.586
511.545;15336.666;   -9.326;15243.775
512.132;15262.107;  -10.075;15945.876
512.719;15726.421;   -7.796;16340.369
513.305;16862.654;  -10.606;18011.766
513.892;18709.873;  -11.486;19754.971
514.479;20234.219;   -9.126;20967.805
515.066;20944.090;   -6.026;22299.793
515.652;20496.010;   -8.466;22908.660
516.239;20887.760;  -10.886;23798.875
516.825;21972.543;  -11.496;25567.275
517.412;23477.139;   -5.796;28154.959
517.998;24682.727;  -10.506;28344.111
518.585;25646.170;  -10.076;27134.219
519.171;24975.598;   -8.315;27268.576
519.758;26211.764;   -8.596;28964.129
520.344;28311.967;   -8.466;30664.494
520.930;27381.250;  -11.006;32550.605
521.516;26293.707;  -10.495;35422.895
522.103;28137.158;   -5.526;38280.004
522.689;29609.859;   -8.746;37835.117
523.275;30483.639;  -11.376;37288.613
523.861;32389.080;  -11.156;37281.395
524.447;32623.230;   -8.135;37846.949
525.033;32853.730;   -7.896;38321.949
525.619;33343.637;  -12.476;38579.285
526.205;33531.129;   -9.516;40622.875
526.791;33032.188;   -6.926;42258.836
527.377;32304.383;   -8.346;42966.902
527.963;33824.512;   -8.717;42018.949
528.549;35161.957;  -11.016;42476.828
529.135;33696.707;   -8.536;41854.852
529.721;34232.559;   -9.666;41237.711
530.306;33230.871;  -10.066;41259.445
530.892;32637.934;  -11.356;41506.047
531.478;34538.789;   -6.596;43559.613
532.063;36943.078;   -8.836;47695.563
532.649;35692.715;  -10.047;50808.324
533.235;36306.297;   -9.746;51787.500
533.820;37953.879;   -6.566;52145.035
534.406;39130.945;  -10.817;51133.488
534.991;40661.375;   -9.416;49996.805
535.576;38827.832;   -9.036;48882.852
536.162;36304.012;   -6.156;46942.285
536.747;37115.988;  -11.607;45711.746
537.333;38920.117;  -11.787;48510.180
537.918;39846.254;  -12.437;50439.891
538.503;40236.922;   -7.196;50863.711
539.088;41191.145;  -10.556;50906.922
539.673;41754.453;   -8.767;52621.965
540.259;38803.469;  -10.026;52368.094
540.844;38808.039;   -7.416;50879.109
541.429;38839.551;   -9.467;52077.777
542.014;37921.840;   -9.527;52716.695
542.599;40700.703;   -9.946;52363.281
543.184;41913.445;   -7.927;53187.137
543.769;42697.574;   -9.297;54697.605
544.354;42918.895;  -10.127;53913.914
544.938;40617.605;   -9.267;49680.164
545.523;39315.133;   -6.506;47386.277
546.108;41923.094;   -9.787;49151.949
546.693;41940.082;  -11.587;51384.637
547.278;41193.461;  -10.986;51853.254
547.862;41942.512;   -8.206;51173.750
548.447;40472.039;  -10.067;51691.395
549.031;40054.367;   -9.637;52456.703
549.616;40143.461;   -9.926;52714.516
550.201;39726.168;   -6.347;52414.598
550.785;40206.129;   -7.917;52355.059
551.370;41089.340;  -10.867;54589.453
551.954;42921.816;   -9.047;58267.348
552.538;41978.516;   -7.827;59062.176
553.123;40501.730;  -10.287;58115.285
553.707;39299.066;  -12.178;56556.285
554.291;37859.648;   -8.717;56201.668
554.876;39785.652;   -7.457;55335.762
555.460;41960.266;  -10.387;54155.703
556.044;43366.328;   -9.618;53721.484
556.628;43443.590;  -11.567;53731.016
557.212;43926.254;   -8.097;54312.531
557.796;45457.395;  -11.077;53797.773
558.380;44167.996;  -11.108;56145.984
558.964;42823.672;   -9.057;57277.930
559.548;40661.891;   -6.977;56459.641
560.132;38415.730;  -11.457;54434.543
560.716;39393.324;  -11.378;54800.617
561.300;40083.840;   -9.577;57606.945
561.884;38626.930;   -7.127;58972.445
562.467;38962.113;   -7.118;57327.570
563.051;37568.301;  -13.358;54962.434
563.635;35243.426;  -10.178;52594.473
564.219;36984.133;   -7.837;50610.410
564.802;40842.020;  -11.398;49551.180
565.386;41511.469;  -12.788;48370.953
565.969;41674.438;   -9.077;48178.871
566.553;40932.391;   -6.207;49957.305
567.136;39805.402;   -8.568;50369.594
567.720;40577.129;  -11.868;49492.004
568.303;41590.508;   -8.268;50616.352
568.887;40632.535;   -8.698;50727.148
569.470;38712.938;   -6.808;51698.379
570.053;36852.504;  -13.188;52122.078
570.637;34335.910;  -12.037;52536.438
571.220;34559.570;   -8.577;51186.098
571.803;34583.875;   -8.498;51032.762
572.386;36162.754;  -10.498;49609.887
572.969;37017.027;   -9.388;48285.926
573.552;37029.582;   -8.338;47624.285
574.135;35757.570;   -8.518;45498.641
574.718;32020.051;  -13.628;41970.434
575.301;32935.719;  -10.893;41447.137
575.884;33851.387;   -8.158;40923.836
576.467;39395.230;  -10.328;45267.723
577.050;40437.391;  -13.058;48175.543
577.633;39258.977;   -9.458;47729.328
578.216;36089.969;   -8.928;47579.793
578.799;33958.773;   -9.358;47820.996
579.381;34523.961;  -11.388;48115.551
579.964;34424.141;  -11.718;47333.766
580.547;33224.715;   -8.588;46668.969
581.129;33385.570;   -8.859;44466.141
581.712;35015.934;  -10.729;44164.922
582.294;35248.797;  -11.118;46477.855
582.877;35465.016;   -5.218;48244.254
583.459;35555.539;   -8.679;47437.895
584.042;36945.793;  -10.709;46943.219
584.624;35207.520;  -11.669;46792.227
585.206;34357.148;   -8.218;46557.250
585.789;35327.715;  -10.569;45793.773
586.371;35624.012;  -11.859;43836.391
586.953;36182.219;  -10.719;42972.492
587.536;38051.957;   -7.198;42487.211
588.118;37458.594;   -8.720;42086.414
588.700;36419.199;  -10.439;43389.930
589.282;34017.977;   -9.198;43646.039
589.864;31556.012;   -9.199;43438.109
590.446;30903.188;  -11.319;43151.926
591.028;31084.738;  -11.159;42781.867
591.610;30832.195;  -11.779;42839.098
592.192;31035.494;   -7.668;42820.402
592.774;29074.311;  -11.949;40724.277
593.356;26054.547;  -12.129;39874.789
593.937;26115.643;  -10.669;39980.648
594.519;29322.195;   -6.509;42069.633
595.101;30685.555;  -10.849;42976.031
