
Integration time [ms]:   3.276
Averaging Nr. [scans]: 1000
Smoothing Nr. [pixels]: 0
Data measured with spectrometer [name]: 7414430SP
Wave   ;Sample   ;Dark     ;Reference
[nm]   ;[counts] ;[counts] ;[counts] 

288.544;  160.182;    7.793;  793.890
289.143;  163.494;    7.462;  681.602
289.742;  164.232;    8.602;  828.814
290.341;  149.987;    1.321;  789.841
290.940;  140.483;   -0.709;  730.702
291.538;  142.692;    0.881;  881.108
292.137;  142.682;    0.122;  792.581
292.736;  144.610;   -1.929;  975.101
293.335;  139.694;   -8.229;  735.086
293.934;  141.808;   -5.279;  781.677
294.532;  142.381;   -1.369; 1031.958
295.131;  129.219;   -7.641;  834.394
295.730;  129.045;   -8.420;  809.588
296.328;  126.693;   -5.611;  783.442
296.927;  124.679;   -5.781;  779.652
297.525;  127.154;   -6.361;  781.236
298.124;  118.631;  -11.382;  654.009
298.722;  122.871;   -7.641;  761.933
299.321;  120.403;   -6.811;  708.597
299.919;  116.264;   -6.991;  751.918
300.518;  112.440;  -10.362;  689.338
301.116;  115.132;   -9.581;  691.381
301.715;  116.554;   -4.891;  730.222
302.313;  114.058;   -8.801;  704.943
302.911;  108.224;   -8.522;  733.830
303.509;  115.013;   -6.171;  925.627
304.108;  112.197;   -7.311;  760.383
304.706;  111.958;   -8.321;  801.664
305.304;  106.673;  -10.222;  796.707
305.902;  110.344;   -6.021;  784.484
306.500;  105.685;   -4.971;  728.200
307.098;  105.175;   -7.061;  746.560
307.696;  103.759;   -8.801;  780.432
308.294;  103.611;   -6.411;  731.359
308.892;  105.040;   -2.901;  759.769
309.490;  100.853;   -5.041;  712.161
310.088;   99.868;   -5.002;  788.444
310.686;  104.214;   -2.041;  821.749
311.284;   99.053;   -2.351;  766.040
311.882;   97.059;   -4.422;  731.225
312.480;   94.116;   -4.192;  697.167
313.078;   95.523;   -1.172;  808.331
313.675;   95.846;   -2.601;  691.600
314.273;   92.051;   -1.312;  797.837
314.871;   89.904;   -3.942;  589.829
315.468;   87.638;   -2.802;  652.090
316.066;   91.727;   -0.701;  694.427
316.664;   83.829;   -4.362;  656.351
317.261;   88.896;   -2.872;  910.128
317.859;   83.459;   -2.022;  768.735
318.456;   84.213;   -0.531;  830.096
319.054;   79.849;   -3.912;  787.828
319.651;   79.049;   -4.752;  759.928
320.249;   76.448;   -2.602;  810.188
320.846;   74.641;   -0.821;  714.286
321.443;   73.044;   -4.642;  832.135
322.041;   68.625;   -5.002;  812.315
322.638;   66.503;   -3.982;  701.456
323.235;   68.346;   -3.411;  665.683
323.833;   64.740;   -7.361;  740.354
324.430;   60.240;   -8.611;  615.900
325.027;   61.156;   -4.061;  876.855
325.624;   60.118;   -4.031;  644.532
326.221;   57.492;   -7.481;  689.717
326.818;   56.947;   -5.281;  818.332
327.415;   59.508;   -7.460;  748.828
328.012;   59.472;   -5.510;  690.585
328.609;   58.264;   -7.880;  731.389
329.206;   56.919;   -8.331;  778.621
329.803;   56.321;   -5.121;  737.841
330.400;   59.119;   -4.510;  704.260
330.997;   60.368;   -6.441;  817.147
331.594;   57.758;   -8.831;  788.185
332.191;   62.809;   -7.621;  728.722
332.787;   66.766;   -4.591;  844.463
333.384;   66.547;   -7.412;  763.093
333.981;   63.630;   -8.293;  815.687
334.578;   67.208;   -7.052;  708.378
335.174;   70.368;   -3.102;  731.469
335.771;   70.274;   -5.943;  836.456
336.367;   67.339;   -7.393;  710.631
336.964;   70.909;   -4.063;  793.266
337.561;   70.781;   -3.813;  731.112
338.157;   65.477;   -4.654;  911.916
338.754;   62.687;   -7.934;  796.589
339.350;   62.715;   -4.414;  722.493
339.946;   64.598;   -4.664;  773.135
340.543;   54.342;   -6.375;  846.136
341.139;   48.908;   -9.815;  720.836
341.735;   47.740;   -4.526;  772.593
342.332;   46.741;   -4.895;  691.472
342.928;   46.064;   -4.295;  795.394
343.524;   39.410;   -5.476;  761.684
344.120;   36.755;   -5.856;  738.562
344.716;   38.732;   -2.155;  723.717
345.313;   35.887;   -6.275;  795.342
345.909;   31.581;   -8.815;  627.336
346.505;   32.716;   -5.305;  740.247
347.101;   33.485;   -2.674;  827.864
347.697;   32.839;   -4.344;  785.398
348.293;   27.401;   -9.975;  627.244
348.889;   28.854;   -5.774;  745.914
349.485;   27.846;   -5.004;  688.205
350.081;   28.322;   -4.704;  772.592
350.676;   23.761;   -6.635;  691.606
351.272;   27.845;   -4.504;  809.530
351.868;   27.217;   -3.914;  780.497
352.464;   24.650;   -9.044;  723.932
353.059;   20.279;   -8.314;  646.017
353.655;   24.109;   -7.024;  777.063
354.251;   25.513;   -5.343;  759.845
354.846;   19.760;   -8.604;  740.646
355.442;   17.971;   -6.945;  753.071
356.038;   19.793;   -7.564;  751.708
356.633;   19.284;   -5.814;  728.594
357.229;   17.236;   -7.364;  724.757
357.824;   15.473;   -8.024;  703.600
358.420;   14.328;   -9.384;  679.726
359.015;   15.276;   -5.104;  695.357
359.610;   15.948;   -6.854;  763.920
360.206;    9.934;  -10.185;  603.240
360.801;   12.401;   -7.054;  646.503
361.396;   15.149;   -5.034;  725.975
361.992;    9.628;   -8.284;  668.220
362.587;    7.569;   -8.625;  670.160
363.182;    9.863;   -7.674;  689.631
363.777;   10.573;   -5.164;  738.242
364.372;    9.968;   -8.604;  737.314
364.967;    6.037;   -9.055;  680.744
365.563;   10.733;   -6.114;  815.567
366.158;    7.349;   -5.814;  685.161
366.753;    7.303;   -7.854;  649.263
367.348;    6.757;   -7.804;  746.056
367.942;    6.461;   -7.954;  697.298
368.537;    4.922;   -4.984;  754.245
369.132;    5.309;   -8.564;  703.428
369.727;    1.113;   -8.855;  638.079
370.322;    2.738;   -6.245;  580.186
370.917;    2.190;   -6.425;  710.646
371.511;    5.043;   -6.294;  861.834
372.106;    1.209;   -7.685;  776.964
372.701;   -1.698;   -7.335;  585.988
373.296;    3.253;   -4.564;  863.135
373.890;   -1.578;  -10.235;  647.840
374.485;   -3.948;   -7.885;  691.199
375.079;    0.878;   -7.324;  738.685
375.674;    2.090;   -3.494;  812.970
376.268;   -2.478;   -8.525;  691.759
376.863;   -8.054;  -10.086;  580.327
377.457;   -1.492;   -7.025;  662.490
378.052;   -3.697;   -3.585;  764.884
378.646;   -4.818;   -7.595;  741.167
379.240;   -5.109;   -8.335;  721.176
379.835;   -4.022;   -5.785;  636.978
380.429;   -5.777;   -4.335;  562.557
381.023;   -6.678;   -6.805;  779.205
381.617;   -9.075;   -9.195;  680.106
382.212;   -5.234;   -6.905;  685.303
382.806;   -4.461;   -3.745;  760.690
383.400;   -9.601;   -7.745;  672.281
383.994;   -9.944;   -9.765;  664.870
384.588;   -5.660;   -6.564;  697.701
385.182;   -5.312;   -5.344;  726.624
385.776;   -6.984;   -8.514;  706.875
386.370;   -9.945;   -9.555;  681.968
386.964;   -7.902;   -8.715;  684.155
387.558;   -7.100;   -6.174;  598.360
388.152;  -10.034;   -8.725;  681.959
388.745;   -8.421;   -7.965;  814.707
389.339;   -6.545;   -5.924;  747.642
389.933;   -5.693;   -5.524;  695.370
390.527;   -6.894;   -7.114;  859.029
391.120;  -14.002;  -10.725;  595.318
391.714;   -9.843;   -8.035;  711.633
392.308;   -7.502;   -3.574;  780.253
392.901;  -11.304;   -7.245;  642.460
393.495;  -13.143;   -9.285;  595.414
394.089;  -10.395;   -5.895;  760.452
394.682;  -10.844;   -4.295;  697.188
395.275;  -11.978;   -9.875;  719.927
395.869;  -12.947;   -8.485;  667.314
396.462;  -11.399;   -7.455;  616.609
397.056;   -7.443;   -5.424;  776.621
397.649;  -12.203;   -6.605;  731.575
398.242;   -9.671;   -8.224;  712.645
398.836;   -9.153;   -7.474;  766.408
399.429;   -9.999;   -7.094;  631.041
400.022;  -14.343;   -9.475;  665.902
400.615;  -11.199;   -7.145;  805.609
401.208;   -9.450;   -7.174;  691.451
401.802;  -11.797;   -5.515;  699.329
402.395;  -12.929;   -9.875;  683.502
402.988;  -14.329;   -8.845;  696.627
403.581;   -9.867;   -8.874;  646.878
404.174;   -7.452;   -5.324;  686.568
404.767;  -11.590;   -9.575;  638.583
405.360;  -13.423;  -10.965;  621.445
405.953;   -7.548;   -8.764;  759.034
406.545;   -7.909;   -7.514;  725.342
407.138;  -11.865;  -10.025;  618.350
407.731;  -11.608;  -10.034;  613.303
408.324;   -6.559;   -9.374;  660.554
408.917;   -8.688;   -6.534;  681.864
409.509;   -9.796;   -8.004;  740.396
410.102;  -12.357;   -9.875;  643.948
410.695;   -5.369;   -8.604;  665.758
411.287;   -6.233;   -6.794;  599.821
411.880;   -8.196;   -9.334;  585.421
412.472;  -11.317;  -10.254;  613.092
413.065;   -7.884;   -6.714;  629.408
413.657;   -5.494;   -7.234;  576.678
414.250;   -6.050;  -10.544;  646.681
414.842;   -7.996;   -9.744;  676.353
415.434;   -4.509;   -6.994;  570.463
416.027;   -1.284;   -5.893;  652.196
416.619;   -2.859;   -7.264;  713.400
417.211;   -3.675;  -10.374;  599.352
417.804;   -0.194;   -7.993;  628.499
418.396;   -4.008;   -7.234;  607.643
418.988;   -1.978;   -9.443;  659.238
419.580;   -5.265;  -10.724;  568.276
420.172;   -3.638;  -10.323;  536.196
420.764;    0.492;   -8.793;  672.482
421.356;   -0.654;  -11.143;  636.898
421.948;   -2.156;   -8.293;  677.661
422.540;    4.120;   -7.893;  680.027
423.132;    3.329;   -7.082;  600.641
423.724;   -0.009;   -8.653;  561.267
424.316;    1.612;  -10.213;  621.345
424.908;    5.318;   -9.762;  591.517
425.500;    5.754;   -5.572;  647.978
426.092;    6.479;   -8.422;  648.268
426.683;    4.472;   -9.283;  684.836
427.275;    7.726;   -7.852;  641.471
427.867;    9.292;   -5.272;  668.948
428.458;    9.818;   -7.682;  732.344
429.050;    7.711;  -10.612;  680.749
429.642;   11.342;   -9.882;  743.124
430.233;   10.787;   -6.962;  569.356
430.825;   12.841;   -6.842;  724.809
431.416;    9.327;   -9.672;  698.241
432.008;   13.695;   -6.552;  651.723
432.599;   14.677;   -6.891;  656.073
433.190;   11.487;  -10.912;  637.670
433.782;   10.633;  -11.172;  590.395
434.373;   17.857;   -6.061;  884.765
434.964;   16.550;   -8.251;  602.920
435.556;   13.671;   -9.722;  634.537
436.147;   17.303;   -9.082;  758.490
436.738;   17.300;   -8.041;  701.099
437.329;   21.835;   -7.341;  721.723
437.920;   15.339;   -8.162;  666.688
438.511;   14.851;  -11.802;  564.526
439.103;   21.599;  -10.191;  623.998
439.694;   23.821;   -7.601;  681.583
440.285;   24.332;   -8.541;  764.432
440.876;   22.096;   -9.751;  845.738
441.466;   22.541;   -9.401;  575.162
442.057;   26.812;   -7.760;  665.814
442.648;   25.536;   -9.971;  746.255
443.239;   23.687;  -11.001;  620.477
443.830;   29.510;   -7.990;  704.958
444.421;   31.163;   -7.910;  655.474
445.011;   27.893;   -8.131;  693.619
445.602;   27.009;   -7.111;  743.126
446.193;   28.532;  -10.920;  488.117
446.783;   33.231;   -6.500;  640.397
447.374;   28.225;   -8.671;  692.759
447.964;   29.663;  -10.781;  713.770
448.555;   38.134;   -9.650;  822.742
449.145;   34.465;   -8.660;  662.853
449.736;   35.544;   -8.990;  803.179
450.326;   35.210;   -9.500;  713.626
450.917;   39.961;   -8.680;  675.324
451.507;   38.887;   -7.520;  600.661
452.097;   39.347;   -8.590;  746.267
452.688;   40.878;  -11.340;  742.160
453.278;   40.470;  -10.100;  566.840
453.868;   44.757;   -6.019;  793.550
454.458;   42.282;   -9.440;  651.141
455.048;   42.609;  -10.560;  711.783
455.639;   44.636;  -11.799;  567.096
456.229;   48.165;   -6.899;  710.694
456.819;   50.427;   -7.389;  751.158
457.409;   50.154;  -11.119;  773.993
457.999;   53.209;   -9.289;  737.505
458.589;   52.703;   -6.139;  686.606
459.179;   52.860;   -8.729;  717.658
459.769;   50.130;   -9.789;  627.099
460.358;   55.670;  -10.259;  797.262
460.948;   55.833;   -7.299;  689.503
461.538;   56.988;  -10.289;  660.677
462.128;   54.926;  -11.269;  664.934
462.717;   61.984;   -9.368;  710.326
463.307;   65.495;   -7.908;  705.846
463.897;   60.870;   -9.599;  656.942
464.486;   60.140;   -9.769;  837.128
465.076;   64.401;   -8.048;  733.776
465.666;   68.616;   -9.358;  652.900
466.255;   65.662;   -7.919;  785.651
466.845;   64.096;  -11.689;  666.749
467.434;   67.726;   -7.818;  725.873
468.023;   69.132;   -7.678;  658.357
468.613;   66.470;  -10.939;  713.946
469.202;   71.043;  -10.118;  646.507
469.791;   75.247;   -9.108;  737.811
470.381;   76.533;   -6.058;  742.813
470.970;   76.248;  -10.428;  711.099
471.559;   75.992;  -10.268;  733.291
472.148;   80.096;   -8.448;  675.737
472.738;   82.161;   -6.917;  765.466
473.327;   81.313;  -11.978;  637.529
473.916;   80.823;  -11.888;  737.446
474.505;   85.515;   -9.437;  751.703
475.094;   88.378;   -6.747;  806.570
475.683;   87.883;   -9.367;  797.699
476.272;   88.767;  -12.637;  730.632
476.861;   91.152;  -10.027;  706.754
477.449;   97.885;   -8.716;  728.487
478.038;   92.060;   -9.577;  692.513
478.627;   93.554;   -9.718;  714.852
479.216;  100.297;   -8.947;  769.441
479.805;  103.496;   -6.256;  783.375
480.393;  102.363;   -7.937; 1008.945
480.982;  101.508;   -7.717;  874.501
481.571;  108.527;   -9.266;  858.333
482.159;  108.447;   -7.636;  705.386
482.748;  108.650;   -9.667;  821.385
483.336;  113.103;  -10.376;  858.209
483.925;  113.936;   -7.147;  774.373
484.513;  120.775;   -7.996;  758.962
485.102;  117.728;  -10.027;  810.965
485.690;  125.429;  -10.446; 1011.050
486.278;  128.259;   -8.446;  979.329
486.867;  128.347;   -6.356;  809.662
487.455;  130.451;   -9.136;  898.229
488.043;  132.508;  -10.646;  748.361
488.631;  140.938;   -7.456; 1005.079
489.220;  145.201;   -6.636;  908.626
489.808;  145.070;  -11.036;  741.415
490.396;  152.683;  -10.246;  914.645
490.984;  159.334;   -8.556;  830.161
491.572;  170.916;   -5.886;  940.315
492.160;  176.530;   -9.486;  919.081
492.748;  188.745;  -10.976;  884.341
493.336;  211.811;   -8.776; 1019.693
493.924;  236.179;   -5.465;  958.077
494.512;  267.235;   -9.986; 1066.638
495.100;  308.606;  -10.636; 1103.280
495.687;  362.048;  -10.885; 1206.373
496.275;  426.489;   -8.126; 1150.796
496.863;  509.233;  -10.586; 1281.171
497.451;  612.143;  -11.926; 1386.805
498.038;  726.008;  -10.885; 1556.729
498.626;  852.813;   -6.315; 1741.407
499.214;  990.065;   -7.326; 2016.609
499.801; 1170.126;  -11.906; 2220.633
500.389; 1362.289;  -10.466; 2312.494
500.976; 1600.767;   -5.236; 2744.849
501.564; 1982.632;   -8.936; 3148.565
502.151; 2537.439;  -13.176; 3515.999
502.738; 3082.920;  -10.646; 3971.274
503.326; 3558.653;   -9.525; 4403.796
503.913; 3853.253;  -10.856; 5161.749
504.500; 4338.423;  -11.586; 5986.420
505.088; 4968.373;  -10.336; 6381.201
505.675; 5124.460;   -6.355; 6925.547
506.262; 5546.982;   -9.046; 7619.060
506.849; 6013.209;  -10.416; 8733.969
507.436; 6345.644;  -10.305; 9790.121
508.023; 7099.935;   -5.496; 9985.472
508.610; 7741.009;   -7.856;10434.618
509.197; 9208.817;  -10.097;11198.435
509.784;10602.460;  -10.886;12391.194
510.371;11494.328;   -9.315;13603.713
510.958;12217.866;   -9.936;14426.586
511.545;12387.410;   -9.326;15243.775
512.132;13026.103;  -10.075;15945.876
512.719;14295.063;   -7.796;16340.369
513.305;16640.902;  -10.606;18011.766
513.892;17628.045;  -11.486;19754.971
514.479;18736.324;   -9.126;20967.805
515.066;19716.342;   -6.026;22299.793
515.652;19571.203;   -8.466;22908.660
516.239;20127.314;  -10.886;23798.875
516.825;21890.518;  -11.496;25567.275
517.412;23490.924;   -5.796;28154.959
517.998;23851.203;  -10.506;28344.111
518.585;23580.627;  -10.076;27134.219
519.171;23728.969;   -8.315;27268.576
519.758;24236.537;   -8.596;28964.129
520.344;25164.244;   -8.466;30664.494
520.930;27675.088;  -11.006;32550.605
521.516;29416.346;  -10.495;35422.895
522.103;29963.029;   -5.526;38280.004
522.689;31008.539;   -8.746;37835.117
523.275;31989.145;  -11.376;37288.613
523.861;33460.199;  -11.156;37281.395
524.447;33998.645;   -8.135;37846.949
525.033;34248.914;   -7.896;38321.949
525.619;36545.715;  -12.476;38579.285
526.205;37615.801;   -9.516;40622.875
526.791;36858.672;   -6.926;42258.836
527.377;37924.129;   -8.346;42966.902
527.963;39569.500;   -8.717;42018.949
528.549;39345.430;  -11.016;42476.828
529.135;38728.984;   -8.536;41854.852
529.721;37537.109;   -9.666;41237.711
530.306;36771.508;  -10.066;41259.445
530.892;35485.281;  -11.356;41506.047
531.478;36790.480;   -6.596;43559.613
532.063;39297.656;   -8.836;47695.563
532.649;41457.125;  -10.047;50808.324
533.235;42484.609;   -9.746;51787.500
533.820;44513.992;   -6.566;52145.035
534.406;46596.832;  -10.817;51133.488
534.991;47797.645;   -9.416;49996.805
535.576;43431.895;   -9.036;48882.852
536.162;41925.715;   -6.156;46942.285
536.747;42635.727;  -11.607;45711.746
537.333;44376.473;  -11.787;48510.180
537.918;44488.555;  -12.437;50439.891
538.503;43574.824;   -7.196;50863.711
539.088;44774.688;  -10.556;50906.922
539.673;46677.332;   -8.767;52621.965
540.259;45109.949;  -10.026;52368.094
540.844;44296.180;   -7.416;50879.109
541.429;45487.625;   -9.467;52077.777
542.014;47255.230;   -9.527;52716.695
542.599;49050.664;   -9.946;52363.281
543.184;47714.055;   -7.927;53187.137
543.769;45814.867;   -9.297;54697.605
544.354;43448.953;  -10.127;53913.914
544.938;41625.379;   -9.267;49680.164
545.523;42838.930;   -6.506;47386.277
546.108;45314.941;   -9.787;49151.949
546.693;46654.328;  -11.587;51384.637
547.278;46200.219;  -10.986;51853.254
547.862;43670.746;   -8.206;51173.750
548.447;43148.074;  -10.067;51691.395
549.031;46359.781;   -9.637;52456.703
549.616;48343.012;   -9.926;52714.516
550.201;47143.816;   -6.347;52414.598
550.785;45163.000;   -7.917;52355.059
551.370;40324.012;  -10.867;54589.453
551.954;42403.199;   -9.047;58267.348
552.538;45539.289;   -7.827;59062.176
553.123;45252.457;  -10.287;58115.285
553.707;43641.855;  -12.178;56556.285
554.291;44984.230;   -8.717;56201.668
554.876;45867.441;   -7.457;55335.762
555.460;46711.930;  -10.387;54155.703
556.044;45965.191;   -9.618;53721.484
556.628;44528.070;  -11.567;53731.016
557.212;46295.926;   -8.097;54312.531
557.796;45790.742;  -11.077;53797.773
558.380;43371.223;  -11.108;56145.984
558.964;40573.758;   -9.057;57277.930
559.548;39571.320;   -6.977;56459.641
560.132;40246.645;  -11.457;54434.543
560.716;40200.922;  -11.378;54800.617
561.300;41330.582;   -9.577;57606.945
561.884;43407.340;   -7.127;58972.445
562.467;45191.445;   -7.118;57327.570
563.051;43841.816;  -13.358;54962.434
563.635;43594.211;  -10.178;52594.473
564.219;44532.238;   -7.837;50610.410
564.802;43643.676;  -11.398;49551.180
565.386;43136.863;  -12.788;48370.953
565.969;41590.320;   -9.077;48178.871
566.553;41533.012;   -6.207;49957.305
567.136;41754.723;   -8.568;50369.594
567.720;42111.434;  -11.868;49492.004
568.303;42355.352;   -8.268;50616.352
568.887;40916.930;   -8.698;50727.148
569.470;40518.758;   -6.808;51698.379
570.053;38391.473;  -13.188;52122.078
570.637;36616.086;  -12.037;52536.438
571.220;36411.793;   -8.577;51186.098
571.803;36674.203;   -8.498;51032.762
572.386;34788.090;  -10.498;49609.887
572.969;33778.473;   -9.388;48285.926
573.552;33189.578;   -8.338;47624.285
574.135;34341.363;   -8.518;45498.641
574.718;35923.273;  -13.628;41970.434
575.301;34096.055;  -10.893;41447.137
575.884;32268.838;   -8.158;40923.836
576.467;35507.859;  -10.328;45267.723
577.050;35955.836;  -13.058;48175.543
577.633;36246.262;   -9.458;47729.328
578.216;35365.926;   -8.928;47579.793
578.799;34088.777;   -9.358;47820.996
579.381;33555.465;  -11.388;48115.551
579.964;32702.746;  -11.718;47333.766
580.547;34112.250;   -8.588;46668.969
581.129;35539.207;   -8.859;44466.141
581.712;33871.328;  -10.729;44164.922
582.294;34052.945;  -11.118;46477.855
582.877;34791.836;   -5.218;48244.254
583.459;35008.313;   -8.679;47437.895
584.042;33958.609;  -10.709;46943.219
584.624;33467.754;  -11.669;46792.227
585.206;36772.676;   -8.218;46557.250
585.789;35562.258;  -10.569;45793.773
586.371;33818.516;  -11.859;43836.391
586.953;31534.764;  -10.719;42972.492
587.536;30125.277;   -7.198;42487.211
588.118;32016.592;   -8.720;42086.414
588.700;33559.695;  -10.439;43389.930
589.282;33267.668;   -9.198;43646.039
589.864;32737.107;   -9.199;43438.109
590.446;32132.537;  -11.319;43151.926
591.028;32567.902;  -11.159;42781.867
591.610;32131.887;  -11.779;42839.098
592.192;28993.412;   -7.668;42820.402
592.774;27957.420;  -11.949;40724.277
593.356;27144.967;  -12.129;39874.789
593.937;27097.703;  -10.669;39980.648
594.519;26003.449;   -6.509;42069.633
595.101;27350.813;  -10.849;42976.031
