gmr_left
Integration time [ms]: 238.412
Averaging Nr. [scans]: 40
Smoothing Nr. [pixels]: 0
Data measured with spectrometer [name]: 7414430SP
Wave   ;Sample   ;Dark     ;Reference
[nm]   ;[counts] ;[counts] ;[counts] 

288.544;  500.745;  332.182;    6.613
289.143;  438.753;  271.583;   14.216
289.742;  531.873;  358.283;   11.816
290.341;  498.755;  338.184;   -4.936
290.940;  472.233;  301.359;    0.852
291.538;  553.540;  386.909;    1.792
292.137;  507.336;  339.183;    6.262
292.736;  610.155;  448.984;    8.164
293.335;  475.198;  303.109;   -6.418
293.934;  497.058;  331.034;   -2.904
294.532;  651.003;  479.809;   -5.162
295.131;  525.549;  376.861;  -10.283
295.730;  511.714;  361.060;  -16.141
296.328;  500.559;  345.711;  -14.740
296.927;  496.033;  342.761;   -8.768
297.525;  492.279;  342.961;  -15.255
298.124;  417.290;  272.787;  -22.063
298.722;  479.228;  336.861;  -14.796
299.321;  455.817;  303.761;  -10.466
299.919;  478.661;  329.786;  -10.979
300.518;  440.755;  293.262;  -12.077
301.116;  442.277;  297.361;  -13.509
301.715;  461.718;  315.411;  -11.939
302.313;  444.143;  306.661;  -15.424
302.911;  463.614;  329.612;  -19.833
303.509;  575.903;  439.211;   -3.567
304.108;  477.803;  342.436;   -9.553
304.706;  505.438;  367.686;   -8.582
305.304;  500.715;  366.712;  -12.348
305.902;  496.698;  359.286;  -14.411
306.500;  458.677;  325.311;   -7.194
307.098;  470.621;  342.011;   -9.322
307.696;  486.215;  361.986;  -19.192
308.294;  458.881;  331.561;   -9.736
308.892;  481.678;  349.686;  -15.482
309.490;  443.046;  314.911;  -14.107
310.088;  487.660;  372.612;  -15.862
310.686;  502.912;  389.461;  -10.781
311.284;  477.311;  356.336;  -14.878
311.882;  448.550;  336.862;   -9.948
312.480;  432.464;  321.162;  -15.503
313.078;  496.165;  388.612;  -17.262
313.675;  428.227;  320.411;   -3.694
314.273;  484.314;  384.962;  -18.246
314.871;  366.519;  268.837;  -15.190
315.468;  400.389;  299.362;  -12.633
316.066;  430.397;  321.511;   -5.765
316.664;  403.438;  302.362;  -14.317
317.261;  539.175;  448.487;   -8.677
317.859;  466.534;  378.637;  -11.804
318.456;  498.781;  411.961;   -3.107
319.054;  467.500;  378.962;   -3.062
319.651;  453.885;  371.737;   -6.706
320.249;  482.260;  398.562;   -5.206
320.846;  424.216;  345.061;   -4.679
321.443;  492.650;  418.661;   -7.920
322.041;  480.450;  400.187;  -14.105
322.638;  410.195;  339.787;   -6.263
323.235;  389.418;  314.961;   -7.424
323.833;  439.052;  363.186;  -14.765
324.430;  354.891;  280.436;  -10.550
325.027;  515.567;  440.611;   -9.951
325.624;  382.894;  298.761;   -3.712
326.221;  406.723;  318.936;   -9.368
326.818;  482.992;  400.711;   -5.637
327.415;  439.459;  346.260;   -6.699
328.012;  401.145;  319.885;   -5.713
328.609;  425.734;  339.260;   -9.983
329.206;  456.878;  366.561;   -7.154
329.803;  429.598;  339.636;   -1.682
330.400;  414.134;  313.485;   -2.741
330.997;  473.958;  377.636;   -4.339
331.594;  457.075;  363.311;  -10.278
332.191;  424.763;  324.736;   -6.967
332.787;  491.507;  386.261;   -0.480
333.384;  438.854;  342.112;  -10.333
333.981;  464.826;  375.163;  -19.900
334.578;  403.287;  310.587;  -19.816
335.174;  418.852;  319.387;  -15.844
335.771;  472.130;  384.438;  -12.670
336.367;  409.674;  320.113;  -21.124
336.964;  455.190;  369.313;  -18.226
337.561;  421.804;  329.313;  -13.311
338.157;  516.516;  432.764;  -19.006
338.754;  452.955;  371.839;  -19.418
339.350;  406.646;  324.864;  -29.433
339.946;  435.783;  348.714;  -16.622
340.543;  473.509;  399.465;  -16.744
341.139;  402.062;  331.215;  -21.841
341.735;  437.312;  363.566;  -25.012
342.332;  390.672;  316.015;  -19.156
342.928;  451.978;  376.415;  -20.443
343.524;  429.981;  357.341;  -14.397
344.120;  417.871;  353.591;  -20.654
344.716;  405.924;  332.640;   -5.730
345.313;  447.763;  378.515;  -10.929
345.909;  343.943;  276.840;  -19.843
346.505;  415.494;  349.565;  -19.645
347.101;  468.075;  394.639;   -9.618
347.697;  443.391;  377.889;  -10.305
348.293;  340.615;  275.590;  -23.189
348.889;  418.670;  352.389;  -18.418
349.485;  377.586;  316.289;  -10.476
350.081;  437.636;  364.839;  -17.320
350.676;  380.740;  319.940;  -21.088
351.272;  452.052;  385.314;  -12.821
351.868;  434.568;  359.189;  -13.165
352.464;  409.272;  339.314;  -12.464
353.059;  357.971;  297.664;  -22.547
353.655;  443.692;  371.639;   -9.379
354.251;  426.939;  356.313;   -8.266
354.846;  414.871;  350.714;  -17.705
355.442;  420.590;  355.915;   -9.317
356.038;  419.532;  352.164;  -11.049
356.633;  406.217;  340.389;  -10.006
357.229;  403.526;  340.089;  -13.120
357.824;  393.770;  327.589;  -15.647
358.420;  382.256;  310.939;  -19.204
359.015;  388.296;  318.914;  -12.263
359.610;  431.257;  365.289;  -16.421
360.206;  335.174;  270.590;  -20.074
360.801;  361.361;  291.064;  -13.277
361.396;  413.008;  343.139;   -5.822
361.992;  379.620;  306.264;  -11.247
362.587;  368.269;  308.515;  -21.502
363.182;  389.675;  322.764;   -7.461
363.777;  420.616;  351.864;   -8.719
364.372;  418.001;  358.189;  -14.590
364.967;  386.554;  321.715;  -15.145
365.563;  459.627;  388.039;   -7.192
366.158;  388.536;  320.264;   -5.662
366.753;  366.352;  295.314;   -8.378
367.348;  426.650;  357.064;  -14.990
367.942;  394.516;  327.764;   -6.005
368.537;  427.515;  361.689;  -11.504
369.132;  402.911;  329.614;  -10.576
369.727;  362.359;  298.440;  -12.573
370.322;  335.020;  266.940;  -11.560
370.917;  405.465;  339.490;  -10.388
371.511;  492.216;  427.164;   -9.161
372.106;  445.704;  379.790;  -10.245
372.701;  337.188;  272.315;  -10.158
373.296;  494.436;  427.564;   -4.719
373.890;  370.219;  307.915;  -11.802
374.485;  395.763;  337.115;  -13.500
375.079;  428.670;  362.789;   -6.276
375.674;  474.416;  401.664;   -0.447
376.268;  398.354;  332.240;   -6.916
376.863;  334.086;  276.716;  -14.483
377.457;  382.005;  314.690;   -6.903
378.052;  442.564;  374.315;   -9.844
378.646;  432.684;  370.840;  -12.601
379.240;  417.698;  351.240;  -14.715
379.835;  373.930;  308.715;  -12.331
380.429;  332.109;  266.490;   -9.074
381.023;  453.213;  393.115;   -1.729
381.617;  395.738;  332.440;  -13.714
382.212;  396.005;  334.815;   -7.060
382.806;  440.080;  377.590;   -2.303
383.400;  387.588;  331.115;   -0.815
383.994;  378.478;  329.140;   -4.429
384.588;  405.980;  348.039;   -6.261
385.182;  425.362;  362.014;    0.008
385.776;  413.331;  356.039;   -3.247
386.370;  394.444;  341.465;   -1.030
386.964;  398.740;  342.840;   -1.346
387.558;  344.641;  293.714;   -2.020
388.152;  397.139;  343.690;   -5.345
388.745;  472.130;  419.915;   -2.774
389.339;  440.256;  385.039;    3.510
389.933;  405.737;  347.289;    5.280
390.527;  498.145;  452.139;    2.610
391.120;  343.173;  295.940;   -7.914
391.714;  411.630;  363.840;   -1.903
392.308;  465.741;  405.564;    6.023
392.901;  378.560;  324.365;   -4.103
393.495;  346.649;  301.415;    3.284
394.089;  453.309;  399.790;    8.655
394.682;  409.064;  361.290;    2.312
395.275;  422.349;  373.240;   -7.402
395.869;  389.629;  342.490;   -1.072
396.462;  354.085;  315.340;    6.454
397.056;  452.381;  403.889;    8.494
397.649;  428.414;  381.015;    1.599
398.242;  411.985;  373.064;    3.153
398.836;  449.596;  402.914;   11.395
399.429;  369.691;  324.289;   14.695
400.022;  386.184;  345.590;    3.627
400.615;  470.024;  432.340;    8.383
401.208;  401.711;  354.989;   13.295
401.802;  406.305;  365.940;    6.211
402.395;  402.459;  361.290;    7.227
402.988;  398.818;  362.265;    2.700
403.581;  375.190;  336.689;   11.225
404.174;  397.417;  354.064;   18.922
404.767;  370.920;  339.265;   14.169
405.360;  356.568;  326.690;    8.999
405.953;  436.631;  403.039;   13.138
406.545;  418.127;  377.889;   13.937
407.138;  354.875;  313.990;   10.869
407.731;  355.210;  317.039;   12.768
408.324;  384.538;  343.789;   22.921
408.917;  393.537;  359.814;   15.308
409.509;  429.315;  395.314;   12.239
410.102;  370.454;  340.165;   13.741
410.695;  387.683;  347.989;   20.249
411.287;  350.687;  311.239;   21.793
411.880;  333.982;  302.339;   22.965
412.472;  345.380;  318.389;   15.082
413.065;  361.576;  336.289;   23.423
413.657;  331.488;  298.039;   21.077
414.250;  372.098;  336.714;   12.349
414.842;  389.807;  352.064;   20.423
415.434;  331.443;  296.714;   19.906
416.027;  372.960;  339.988;   26.574
416.619;  410.543;  384.414;   15.705
417.211;  335.923;  309.039;   17.791
417.804;  357.461;  325.263;   30.244
418.396;  353.378;  319.364;   24.177
418.988;  375.634;  348.488;   24.904
419.580;  321.823;  292.489;   20.692
420.172;  313.404;  278.713;   22.275
420.764;  389.091;  355.763;   26.773
421.356;  369.930;  338.413;   25.731
421.948;  385.119;  359.838;   24.876
422.540;  388.947;  355.188;   30.042
423.132;  346.792;  313.387;   32.728
423.724;  318.895;  290.788;   21.317
424.316;  351.441;  323.238;   29.359
424.908;  338.678;  304.287;   28.798
425.500;  370.693;  335.712;   30.512
426.092;  367.353;  336.912;   26.741
426.683;  397.787;  362.463;   27.029
427.275;  366.969;  336.387;   32.611
427.867;  385.854;  351.337;   33.796
428.458;  420.809;  385.937;   34.453
429.050;  388.843;  356.687;   34.255
429.642;  428.649;  391.712;   39.082
430.233;  321.355;  287.987;   41.138
430.825;  420.254;  384.287;   31.581
431.416;  393.388;  366.212;   35.755
432.008;  372.715;  337.812;   40.566
432.599;  373.380;  335.336;   46.322
433.190;  366.488;  333.212;   46.897
433.782;  336.288;  302.337;   41.069
434.373;  508.761;  470.836;   48.778
434.964;  341.971;  307.636;   50.078
435.556;  362.759;  329.587;   52.381
436.147;  430.405;  392.887;   38.251
436.738;  399.210;  360.061;   47.237
437.329;  412.373;  372.511;   61.304
437.920;  378.679;  345.062;   48.611
438.511;  317.279;  279.837;   44.910
439.103;  353.768;  315.036;   62.404
439.694;  390.108;  350.436;   63.075
440.285;  442.793;  400.436;   61.033
440.876;  481.466;  444.436;   57.249
441.466;  327.067;  290.086;   61.306
442.057;  378.185;  331.460;   65.773
442.648;  429.913;  386.736;   65.676
443.239;  353.932;  312.761;   55.963
443.830;  404.379;  361.860;   69.631
444.421;  370.910;  328.660;   69.943
445.011;  395.677;  350.386;   72.791
445.602;  425.762;  379.461;   68.848
446.193;  276.919;  228.810;   80.044
446.783;  365.786;  313.585;   82.599
447.374;  396.208;  357.311;   77.419
447.964;  406.937;  362.536;   72.605
448.555;  475.021;  424.460;   82.041
449.145;  379.105;  330.310;   76.230
449.736;  460.169;  414.985;   75.545
450.326;  412.999;  359.935;   67.945
450.917;  387.107;  333.685;   77.598
451.507;  344.781;  290.635;   68.027
452.097;  437.336;  383.935;   67.771
452.688;  425.036;  368.435;   62.884
453.278;  321.441;  275.160;   65.512
453.868;  457.103;  403.809;   71.796
454.458;  374.271;  318.910;   60.956
455.048;  409.021;  353.535;   62.356
455.639;  327.868;  268.759;   58.782
456.229;  407.349;  346.284;   65.209
456.819;  431.959;  368.959;   61.466
457.409;  441.978;  386.634;   59.967
457.999;  427.710;  361.034;   58.093
458.589;  391.989;  333.359;   59.536
459.179;  418.964;  349.659;   55.994
459.769;  354.088;  298.609;   43.624
460.358;  461.120;  390.959;   46.978
460.948;  400.775;  328.684;   49.821
461.538;  380.280;  310.534;   54.678
462.128;  380.449;  315.259;   49.309
462.717;  407.397;  337.158;   52.774
463.307;  410.618;  332.983;   48.101
463.897;  377.875;  311.684;   45.606
464.486;  483.943;  417.409;   45.010
465.076;  428.391;  353.758;   45.519
465.666;  374.698;  297.008;   50.058
466.255;  457.016;  380.084;   44.463
466.845;  382.030;  313.384;   41.206
467.434;  417.631;  343.333;   44.847
468.023;  380.727;  300.133;   46.760
468.613;  416.389;  335.959;   39.736
469.202;  372.732;  295.883;   46.461
469.791;  429.003;  345.133;   47.944
470.381;  434.329;  347.033;   47.529
470.970;  410.348;  332.058;   43.773
471.559;  425.347;  342.008;   41.646
472.148;  390.594;  303.683;   37.914
472.738;  447.459;  356.482;   48.071
473.327;  364.359;  281.358;   47.871
473.916;  427.768;  344.183;   37.716
474.505;  436.670;  347.732;   40.256
475.094;  468.931;  376.407;   43.269
475.683;  460.360;  365.032;   36.499
476.272;  427.334;  330.607;   44.542
476.861;  410.026;  312.082;   42.297
477.449;  423.534;  321.156;   46.878
478.038;  398.824;  303.132;   35.156
478.627;  412.679;  312.283;   42.514
479.216;  446.492;  339.082;   43.937
479.805;  458.363;  342.281;   51.393
480.393;  586.226;  478.332;   53.239
480.982;  508.620;  400.307;   38.955
481.571;  499.793;  389.631;   45.436
482.159;  408.623;  293.706;   51.007
482.748;  477.587;  366.357;   49.695
483.336;  500.818;  381.181;   48.280
483.925;  452.927;  334.082;   47.166
484.513;  442.130;  315.681;   55.404
485.102;  469.717;  343.207;   54.238
485.690;  590.275;  454.581;   55.748
486.278;  572.485;  440.606;   55.934
486.867;  468.299;  333.306;   57.106
487.455;  528.883;  388.156;   56.979
488.043;  434.513;  294.606;   57.564
488.631;  582.795;  434.606;   57.432
489.220;  534.241;  375.931;   63.646
489.808;  438.049;  280.831;   65.449
490.396;  534.775;  376.381;   61.977
490.984;  489.704;  312.181;   68.834
491.572;  556.160;  372.756;   70.775
492.160;  542.763;  353.331;   67.564
492.748;  516.668;  321.856;   66.808
493.336;  601.580;  385.406;   79.747
493.924;  558.206;  328.880;   88.688
494.512;  621.474;  377.506;   84.120
495.100;  638.698;  368.731;   86.250
495.687;  697.101;  385.755;  103.074
496.275;  665.531;  306.906;  108.717
496.863;  731.769;  320.381;  107.035
497.451;  808.883;  318.181;  117.993
498.038;  902.407;  337.580;  120.116
498.626;  986.371;  323.705;  143.059
499.214; 1122.609;  350.431;  153.434
499.801; 1250.594;  340.156;  175.121
500.389; 1355.906;  273.880;  185.617
500.976; 1600.836;  353.806;  215.789
501.564; 1843.889;  344.506;  240.321
502.151; 1956.318;  238.081;  267.007
502.738; 2213.420;  318.731;  317.961
503.326; 2561.487;  325.180;  361.216
503.913; 2924.450;  343.006;  401.433
504.500; 3257.134;  355.181;  446.492
505.088; 3567.044;  301.106;  512.063
505.675; 4037.452;  330.580;  586.387
506.262; 4529.533;  325.506;  671.021
506.849; 5088.965;  335.756;  759.062
507.436; 5727.621;  380.255;  849.788
508.023; 6136.376;  334.181;  944.288
508.610; 6591.100;  374.231; 1020.690
509.197; 7066.327;  357.257; 1089.052
509.784; 7648.545;  331.206; 1133.776
510.371; 8335.522;  273.280; 1165.501
510.958; 9278.729;  344.181; 1251.735
511.545; 9368.965;  392.581; 1350.248
512.132; 9347.151;  338.105; 1525.945
512.719; 9812.325;  294.131; 1834.933
513.305;10711.770;  302.831; 1965.349
513.892;11861.968;  390.881; 1963.265
514.479;12624.491;  344.106; 2046.446
515.066;13140.700;  381.056; 2252.803
515.652;13673.960;  342.181; 2567.247
516.239;14403.100;  367.031; 2636.919
516.825;14912.175;  280.781; 2482.304
517.412;15816.761;  440.656; 2427.031
517.998;16295.074;  326.831; 2540.463
518.585;16696.943;  321.031; 2609.007
519.171;17618.406;  344.230; 2842.088
519.758;19414.275;  289.856; 3090.703
520.344;20667.494;  375.481; 3176.076
520.930;21269.172;  299.831; 3295.037
521.516;22154.201;  355.580; 3500.959
522.103;22330.555;  395.056; 3736.704
522.689;23146.094;  322.431; 3971.022
523.275;24256.213;  381.706; 4213.778
523.861;24487.045;  331.131; 4190.361
524.447;24239.117;  380.380; 4070.602
525.033;24762.064;  381.681; 4088.892
525.619;24791.389;  303.906; 4416.851
526.205;25523.809;  288.856; 4836.835
526.791;26861.365;  321.731; 4885.903
527.377;27684.258;  315.431; 4544.907
527.963;27999.543;  343.282; 4321.995
528.549;27358.492;  352.506; 4473.979
529.135;26440.414;  304.081; 4788.663
529.721;25661.689;  338.481; 4888.577
530.306;26326.443;  466.581; 4775.779
530.892;27494.889;  318.656; 4793.906
531.478;28591.615;  312.706; 4956.948
532.063;30461.998;  298.081; 5136.936
532.649;31988.832;  423.182; 5336.867
533.235;33336.293;  301.356; 5748.092
533.820;34526.977;  387.506; 6456.875
534.406;34231.688;  323.132; 6590.167
534.991;33547.422;  297.731; 6179.622
535.576;32640.004;  323.756; 6098.691
536.162;32617.119;  473.231; 6441.234
536.747;32965.652;  284.632; 6816.224
537.333;34188.840;  300.207; 6889.752
537.918;33907.043;  334.732; 7154.280
538.503;34512.750;  313.831; 7150.848
539.088;34872.816;  347.831; 7253.308
539.673;33991.512;  326.957; 7625.180
540.259;33505.262;  310.081; 8226.793
540.844;35059.891;  268.181; 8745.092
541.429;35308.160;  415.182; 8762.553
542.014;35282.176;  283.257; 8871.497
542.599;36277.668;  349.206; 8886.008
543.184;37582.262;  292.582; 9079.139
543.769;37145.945;  299.932; 9076.182
544.354;36013.465;  316.832; 8354.081
544.938;34460.766;  346.957; 8236.809
545.523;33650.438;  408.931; 8222.179
546.108;35091.313;  333.957; 8114.082
546.693;35167.426;  329.582; 8535.912
547.278;34370.238;  329.756; 9238.322
547.862;32662.154;  335.231; 9034.405
548.447;31665.740;  375.007; 7795.011
549.031;31293.500;  323.407; 7485.099
549.616;31190.912;  345.556; 7626.308
550.201;30823.371;  317.957; 7627.909
550.785;31391.346;  360.657; 7859.125
551.370;32302.506;  285.157; 7990.654
551.954;33576.008;  376.732; 8196.468
552.538;35779.480;  363.782; 7959.495
553.123;36887.438;  305.957; 7964.826
553.707;37251.230;  321.858; 8515.957
554.291;37166.340;  389.882; 8724.024
554.876;37283.305;  368.932; 8524.211
555.460;37186.121;  314.232; 8704.456
556.044;37407.289;  312.058; 9141.473
556.628;36816.211;  331.082; 9250.197
557.212;36300.211;  381.732; 9444.237
557.796;35215.895;  322.682; 9379.783
558.380;36580.289;  349.858; 9353.658
558.964;36340.316;  337.832; 9210.310
559.548;35056.352;  285.732; 8475.153
560.132;35217.508;  317.732; 7954.084
560.716;36525.020;  287.633; 7489.529
561.300;38178.906;  293.532; 7211.952
561.884;39673.004;  356.157; 7141.313
562.467;38835.660;  357.083; 7155.386
563.051;38523.859;  332.158; 7323.158
563.635;38646.504;  321.708; 7709.114
564.219;38032.977;  329.757; 7678.855
564.802;37703.813;  354.833; 7376.187
565.386;37388.582;  337.983; 7054.372
565.969;37175.750;  393.007; 6589.196
566.553;36487.285;  431.132; 6279.371
567.136;35546.680;  387.258; 5967.930
567.720;35446.086;  333.033; 5660.703
568.303;34954.637;  350.983; 5648.615
568.887;35562.777;  336.083; 5618.443
569.470;35565.594;  347.808; 5411.875
570.053;36067.469;  362.008; 5149.274
570.637;36349.035;  311.582; 5122.798
571.220;36963.320;  370.182; 4957.369
571.803;36288.773;  431.408; 4933.018
572.386;35962.813;  321.158; 4840.973
572.969;36520.457;  324.383; 4592.886
573.552;37487.793;  327.358; 4348.387
574.135;34904.590;  301.458; 4002.290
574.718;29803.242;  306.533; 3654.773
575.301;29185.537;  305.583; 3502.288
575.884;28567.832;  304.633; 3349.803
576.467;30115.438;  382.608; 3191.403
577.050;31769.313;  344.783; 3062.418
577.633;33305.223;  419.133; 3214.200
578.216;34092.578;  323.983; 3284.889
578.799;33958.520;  325.158; 3189.777
579.381;34950.016;  437.358; 3064.502
579.964;35556.504;  306.433; 2888.357
580.547;35392.258;  343.283; 2905.760
581.129;35635.180;  402.609; 2966.849
581.712;37320.387;  353.784; 2887.292
582.294;38231.863;  340.783; 2771.631
582.877;38211.109;  440.133; 2711.602
583.459;37579.852;  337.109; 2577.049
584.042;36385.012;  331.484; 2454.707
584.624;36128.000;  309.609; 2305.893
585.206;35258.207;  266.683; 2189.546
585.789;33134.207;  312.459; 2112.577
586.371;31359.895;  356.459; 2153.065
586.953;31577.596;  368.459; 2197.806
587.536;32763.602;  400.958; 2105.489
588.118;32922.117;  328.560; 1963.911
588.700;33586.035;  402.784; 1843.179
589.282;33739.633;  356.533; 1813.834
589.864;33383.672;  339.384; 1777.620
590.446;33746.703;  270.159; 1733.780
591.028;34438.984;  335.084; 1676.008
591.610;35461.566;  269.934; 1631.649
592.192;34580.012;  343.883; 1632.362
592.774;32646.619;  296.959; 1569.507
593.356;30948.457;  308.434; 1524.539
593.937;31026.420;  305.209; 1569.720
594.519;31561.951;  385.159; 1569.049
595.101;32478.389;  280.159; 1545.452
