
Integration time [ms]:   3.276
Averaging Nr. [scans]: 1000
Smoothing Nr. [pixels]: 0
Data measured with spectrometer [name]: 7414430SP
Wave   ;Sample   ;Dark     ;Reference
[nm]   ;[counts] ;[counts] ;[counts] 

288.544;  158.913;    7.793;  793.890
289.143;  162.968;    7.462;  681.602
289.742;  162.831;    8.602;  828.814
290.341;  149.883;    1.321;  789.841
290.940;  139.599;   -0.709;  730.702
291.538;  141.517;    0.881;  881.108
292.137;  140.915;    0.122;  792.581
292.736;  143.342;   -1.929;  975.101
293.335;  139.188;   -8.229;  735.086
293.934;  140.616;   -5.279;  781.677
294.532;  141.857;   -1.369; 1031.958
295.131;  127.545;   -7.641;  834.394
295.730;  127.449;   -8.420;  809.588
296.328;  124.674;   -5.611;  783.442
296.927;  124.265;   -5.781;  779.652
297.525;  125.414;   -6.361;  781.236
298.124;  117.145;  -11.382;  654.009
298.722;  122.037;   -7.641;  761.933
299.321;  118.826;   -6.811;  708.597
299.919;  114.924;   -6.991;  751.918
300.518;  110.607;  -10.362;  689.338
301.116;  114.037;   -9.581;  691.381
301.715;  114.696;   -4.891;  730.222
302.313;  113.549;   -8.801;  704.943
302.911;  107.276;   -8.522;  733.830
303.509;  112.687;   -6.171;  925.627
304.108;  111.190;   -7.311;  760.383
304.706;  109.734;   -8.321;  801.664
305.304;  104.396;  -10.222;  796.707
305.902;  109.388;   -6.021;  784.484
306.500;  105.027;   -4.971;  728.200
307.098;  103.759;   -7.061;  746.560
307.696;  102.014;   -8.801;  780.432
308.294;  102.608;   -6.411;  731.359
308.892;  103.943;   -2.901;  759.769
309.490;  100.515;   -5.041;  712.161
310.088;   98.285;   -5.002;  788.444
310.686;  102.609;   -2.041;  821.749
311.284;   98.494;   -2.351;  766.040
311.882;   95.702;   -4.422;  731.225
312.480;   92.293;   -4.192;  697.167
313.078;   94.412;   -1.172;  808.331
313.675;   95.445;   -2.601;  691.600
314.273;   89.672;   -1.312;  797.837
314.871;   88.895;   -3.942;  589.829
315.468;   86.348;   -2.802;  652.090
316.066;   90.469;   -0.701;  694.427
316.664;   82.028;   -4.362;  656.351
317.261;   87.093;   -2.872;  910.128
317.859;   81.354;   -2.022;  768.735
318.456;   82.435;   -0.531;  830.096
319.054;   78.598;   -3.912;  787.828
319.651;   77.320;   -4.752;  759.928
320.249;   76.151;   -2.602;  810.188
320.846;   73.552;   -0.821;  714.286
321.443;   71.119;   -4.642;  832.135
322.041;   68.296;   -5.002;  812.315
322.638;   65.447;   -3.982;  701.456
323.235;   67.487;   -3.411;  665.683
323.833;   63.001;   -7.361;  740.354
324.430;   58.626;   -8.611;  615.900
325.027;   60.619;   -4.061;  876.855
325.624;   59.418;   -4.031;  644.532
326.221;   56.710;   -7.481;  689.717
326.818;   56.272;   -5.281;  818.332
327.415;   58.269;   -7.460;  748.828
328.012;   57.516;   -5.510;  690.585
328.609;   55.948;   -7.880;  731.389
329.206;   54.777;   -8.331;  778.621
329.803;   54.985;   -5.121;  737.841
330.400;   57.632;   -4.510;  704.260
330.997;   58.367;   -6.441;  817.147
331.594;   55.868;   -8.831;  788.185
332.191;   62.842;   -7.621;  728.722
332.787;   65.497;   -4.591;  844.463
333.384;   65.247;   -7.412;  763.093
333.981;   64.151;   -8.293;  815.687
334.578;   67.500;   -7.052;  708.378
335.174;   69.556;   -3.102;  731.469
335.771;   69.006;   -5.943;  836.456
336.367;   65.783;   -7.393;  710.631
336.964;   71.731;   -4.063;  793.266
337.561;   68.390;   -3.813;  731.112
338.157;   64.621;   -4.654;  911.916
338.754;   62.792;   -7.934;  796.589
339.350;   61.568;   -4.414;  722.493
339.946;   62.970;   -4.664;  773.135
340.543;   54.469;   -6.375;  846.136
341.139;   48.003;   -9.815;  720.836
341.735;   46.197;   -4.526;  772.593
342.332;   45.558;   -4.895;  691.472
342.928;   45.142;   -4.295;  795.394
343.524;   37.678;   -5.476;  761.684
344.120;   35.104;   -5.856;  738.562
344.716;   38.513;   -2.155;  723.717
345.313;   34.472;   -6.275;  795.342
345.909;   29.817;   -8.815;  627.336
346.505;   30.866;   -5.305;  740.247
347.101;   31.886;   -2.674;  827.864
347.697;   32.059;   -4.344;  785.398
348.293;   25.864;   -9.975;  627.244
348.889;   27.244;   -5.774;  745.914
349.485;   27.055;   -5.004;  688.205
350.081;   27.524;   -4.704;  772.592
350.676;   22.159;   -6.635;  691.606
351.272;   26.379;   -4.504;  809.530
351.868;   26.779;   -3.914;  780.497
352.464;   23.622;   -9.044;  723.932
353.059;   19.771;   -8.314;  646.017
353.655;   23.210;   -7.024;  777.063
354.251;   23.885;   -5.343;  759.845
354.846;   18.444;   -8.604;  740.646
355.442;   16.478;   -6.945;  753.071
356.038;   18.041;   -7.564;  751.708
356.633;   18.444;   -5.814;  728.594
357.229;   16.342;   -7.364;  724.757
357.824;   14.471;   -8.024;  703.600
358.420;   13.511;   -9.384;  679.726
359.015;   13.873;   -5.104;  695.357
359.610;   14.347;   -6.854;  763.920
360.206;    8.779;  -10.185;  603.240
360.801;   11.605;   -7.054;  646.503
361.396;   14.048;   -5.034;  725.975
361.992;    9.354;   -8.284;  668.220
362.587;    6.278;   -8.625;  670.160
363.182;    8.509;   -7.674;  689.631
363.777;    9.925;   -5.164;  738.242
364.372;    9.366;   -8.604;  737.314
364.967;    5.409;   -9.055;  680.744
365.563;    9.504;   -6.114;  815.567
366.158;    6.039;   -5.814;  685.161
366.753;    6.522;   -7.854;  649.263
367.348;    4.923;   -7.804;  746.056
367.942;    5.195;   -7.954;  697.298
368.537;    4.266;   -4.984;  754.245
369.132;    4.143;   -8.564;  703.428
369.727;   -0.540;   -8.855;  638.079
370.322;    1.573;   -6.245;  580.186
370.917;    0.360;   -6.425;  710.646
371.511;    4.339;   -6.294;  861.834
372.106;   -0.321;   -7.685;  776.964
372.701;   -2.796;   -7.335;  585.988
373.296;    2.820;   -4.564;  863.135
373.890;   -2.358;  -10.235;  647.840
374.485;   -5.113;   -7.885;  691.199
375.079;   -0.688;   -7.324;  738.685
375.674;    0.803;   -3.494;  812.970
376.268;   -3.388;   -8.525;  691.759
376.863;   -9.695;  -10.086;  580.327
377.457;   -2.989;   -7.025;  662.490
378.052;   -4.451;   -3.585;  764.884
378.646;   -6.184;   -7.595;  741.167
379.240;   -6.837;   -8.335;  721.176
379.835;   -5.720;   -5.785;  636.978
380.429;   -7.951;   -4.335;  562.557
381.023;   -7.825;   -6.805;  779.205
381.617;  -10.083;   -9.195;  680.106
382.212;   -6.633;   -6.905;  685.303
382.806;   -5.139;   -3.745;  760.690
383.400;  -10.154;   -7.745;  672.281
383.994;  -11.058;   -9.765;  664.870
384.588;   -7.206;   -6.564;  697.701
385.182;   -5.209;   -5.344;  726.624
385.776;   -7.927;   -8.514;  706.875
386.370;  -11.197;   -9.555;  681.968
386.964;  -10.087;   -8.715;  684.155
387.558;   -7.626;   -6.174;  598.360
388.152;  -11.436;   -8.725;  681.959
388.745;   -9.868;   -7.965;  814.707
389.339;   -7.662;   -5.924;  747.642
389.933;   -7.580;   -5.524;  695.370
390.527;   -7.741;   -7.114;  859.029
391.120;  -14.799;  -10.725;  595.318
391.714;  -11.463;   -8.035;  711.633
392.308;   -8.174;   -3.574;  780.253
392.901;  -12.320;   -7.245;  642.460
393.495;  -14.193;   -9.285;  595.414
394.089;  -11.877;   -5.895;  760.452
394.682;  -12.731;   -4.295;  697.188
395.275;  -12.855;   -9.875;  719.927
395.869;  -14.385;   -8.485;  667.314
396.462;  -12.719;   -7.455;  616.609
397.056;   -8.227;   -5.424;  776.621
397.649;  -13.463;   -6.605;  731.575
398.242;  -11.132;   -8.224;  712.645
398.836;  -10.353;   -7.474;  766.408
399.429;  -11.441;   -7.094;  631.041
400.022;  -15.023;   -9.475;  665.902
400.615;  -12.344;   -7.145;  805.609
401.208;  -10.745;   -7.174;  691.451
401.802;  -13.002;   -5.515;  699.329
402.395;  -14.008;   -9.875;  683.502
402.988;  -15.373;   -8.845;  696.627
403.581;  -11.423;   -8.874;  646.878
404.174;   -9.485;   -5.324;  686.568
404.767;  -12.139;   -9.575;  638.583
405.360;  -15.256;  -10.965;  621.445
405.953;   -9.770;   -8.764;  759.034
406.545;   -8.636;   -7.514;  725.342
407.138;  -13.776;  -10.025;  618.350
407.731;  -11.869;  -10.034;  613.303
408.324;   -8.093;   -9.374;  660.554
408.917;   -8.250;   -6.534;  681.864
409.509;  -11.169;   -8.004;  740.396
410.102;  -12.956;   -9.875;  643.948
410.695;   -7.090;   -8.604;  665.758
411.287;   -8.205;   -6.794;  599.821
411.880;   -9.082;   -9.334;  585.421
412.472;  -12.544;  -10.254;  613.092
413.065;   -8.533;   -6.714;  629.408
413.657;   -6.919;   -7.234;  576.678
414.250;   -7.472;  -10.544;  646.681
414.842;   -9.021;   -9.744;  676.353
415.434;   -6.546;   -6.994;  570.463
416.027;   -2.988;   -5.893;  652.196
416.619;   -4.373;   -7.264;  713.400
417.211;   -5.348;  -10.374;  599.352
417.804;   -1.388;   -7.993;  628.499
418.396;   -5.360;   -7.234;  607.643
418.988;   -3.203;   -9.443;  659.238
419.580;   -6.924;  -10.724;  568.276
420.172;   -4.968;  -10.323;  536.196
420.764;   -0.219;   -8.793;  672.482
421.356;   -1.230;  -11.143;  636.898
421.948;   -3.502;   -8.293;  677.661
422.540;    2.190;   -7.893;  680.027
423.132;    2.744;   -7.082;  600.641
423.724;   -1.306;   -8.653;  561.267
424.316;    0.455;  -10.213;  621.345
424.908;    4.287;   -9.762;  591.517
425.500;    4.718;   -5.572;  647.978
426.092;    5.711;   -8.422;  648.268
426.683;    3.970;   -9.283;  684.836
427.275;    6.602;   -7.852;  641.471
427.867;    8.067;   -5.272;  668.948
428.458;    8.502;   -7.682;  732.344
429.050;    7.424;  -10.612;  680.749
429.642;    9.917;   -9.882;  743.124
430.233;   10.521;   -6.962;  569.356
430.825;   10.987;   -6.842;  724.809
431.416;    8.639;   -9.672;  698.241
432.008;   12.147;   -6.552;  651.723
432.599;   12.701;   -6.891;  656.073
433.190;   10.201;  -10.912;  637.670
433.782;    9.299;  -11.172;  590.395
434.373;   17.121;   -6.061;  884.765
434.964;   15.737;   -8.251;  602.920
435.556;   12.940;   -9.722;  634.537
436.147;   15.638;   -9.082;  758.490
436.738;   15.575;   -8.041;  701.099
437.329;   21.512;   -7.341;  721.723
437.920;   14.511;   -8.162;  666.688
438.511;   14.778;  -11.802;  564.526
439.103;   20.720;  -10.191;  623.998
439.694;   23.000;   -7.601;  681.583
440.285;   23.321;   -8.541;  764.432
440.876;   20.931;   -9.751;  845.738
441.466;   20.574;   -9.401;  575.162
442.057;   26.649;   -7.760;  665.814
442.648;   24.469;   -9.971;  746.255
443.239;   22.647;  -11.001;  620.477
443.830;   27.862;   -7.990;  704.958
444.421;   30.626;   -7.910;  655.474
445.011;   26.071;   -8.131;  693.619
445.602;   26.105;   -7.111;  743.126
446.193;   27.985;  -10.920;  488.117
446.783;   32.024;   -6.500;  640.397
447.374;   26.978;   -8.671;  692.759
447.964;   28.763;  -10.781;  713.770
448.555;   36.639;   -9.650;  822.742
449.145;   33.009;   -8.660;  662.853
449.736;   33.998;   -8.990;  803.179
450.326;   33.964;   -9.500;  713.626
450.917;   39.533;   -8.680;  675.324
451.507;   38.467;   -7.520;  600.661
452.097;   39.174;   -8.590;  746.267
452.688;   40.261;  -11.340;  742.160
453.278;   39.642;  -10.100;  566.840
453.868;   44.212;   -6.019;  793.550
454.458;   42.486;   -9.440;  651.141
455.048;   42.238;  -10.560;  711.783
455.639;   43.859;  -11.799;  567.096
456.229;   47.344;   -6.899;  710.694
456.819;   49.738;   -7.389;  751.158
457.409;   49.783;  -11.119;  773.993
457.999;   52.826;   -9.289;  737.505
458.589;   52.719;   -6.139;  686.606
459.179;   52.070;   -8.729;  717.658
459.769;   49.601;   -9.789;  627.099
460.358;   55.719;  -10.259;  797.262
460.948;   55.228;   -7.299;  689.503
461.538;   56.378;  -10.289;  660.677
462.128;   54.167;  -11.269;  664.934
462.717;   60.910;   -9.368;  710.326
463.307;   64.149;   -7.908;  705.846
463.897;   60.143;   -9.599;  656.942
464.486;   59.340;   -9.769;  837.128
465.076;   64.594;   -8.048;  733.776
465.666;   67.896;   -9.358;  652.900
466.255;   65.284;   -7.919;  785.651
466.845;   63.449;  -11.689;  666.749
467.434;   67.176;   -7.818;  725.873
468.023;   69.054;   -7.678;  658.357
468.613;   65.612;  -10.939;  713.946
469.202;   70.384;  -10.118;  646.507
469.791;   75.225;   -9.108;  737.811
470.381;   76.979;   -6.058;  742.813
470.970;   75.898;  -10.428;  711.099
471.559;   75.261;  -10.268;  733.291
472.148;   78.899;   -8.448;  675.737
472.738;   81.885;   -6.917;  765.466
473.327;   80.949;  -11.978;  637.529
473.916;   80.070;  -11.888;  737.446
474.505;   84.276;   -9.437;  751.703
475.094;   87.813;   -6.747;  806.570
475.683;   87.008;   -9.367;  797.699
476.272;   87.460;  -12.637;  730.632
476.861;   90.169;  -10.027;  706.754
477.449;   96.952;   -8.716;  728.487
478.038;   91.730;   -9.577;  692.513
478.627;   92.938;   -9.718;  714.852
479.216;   98.511;   -8.947;  769.441
479.805;  102.082;   -6.256;  783.375
480.393;  101.802;   -7.937; 1008.945
480.982;  101.075;   -7.717;  874.501
481.571;  107.732;   -9.266;  858.333
482.159;  108.269;   -7.636;  705.386
482.748;  107.647;   -9.667;  821.385
483.336;  112.473;  -10.376;  858.209
483.925;  113.558;   -7.147;  774.373
484.513;  120.846;   -7.996;  758.962
485.102;  117.285;  -10.027;  810.965
485.690;  125.977;  -10.446; 1011.050
486.278;  127.552;   -8.446;  979.329
486.867;  128.275;   -6.356;  809.662
487.455;  129.761;   -9.136;  898.229
488.043;  132.159;  -10.646;  748.361
488.631;  141.117;   -7.456; 1005.079
489.220;  144.062;   -6.636;  908.626
489.808;  143.886;  -11.036;  741.415
490.396;  151.716;  -10.246;  914.645
490.984;  158.983;   -8.556;  830.161
491.572;  170.043;   -5.886;  940.315
492.160;  176.085;   -9.486;  919.081
492.748;  189.759;  -10.976;  884.341
493.336;  212.466;   -8.776; 1019.693
493.924;  238.535;   -5.465;  958.077
494.512;  270.581;   -9.986; 1066.638
495.100;  315.393;  -10.636; 1103.280
495.687;  377.421;  -10.885; 1206.373
496.275;  432.416;   -8.126; 1150.796
496.863;  496.352;  -10.586; 1281.171
497.451;  609.078;  -11.926; 1386.805
498.038;  717.998;  -10.885; 1556.729
498.626;  817.444;   -6.315; 1741.407
499.214;  976.417;   -7.326; 2016.609
499.801; 1181.034;  -11.906; 2220.633
500.389; 1412.203;  -10.466; 2312.494
500.976; 1675.661;   -5.236; 2744.849
501.564; 2089.772;   -8.936; 3148.565
502.151; 2571.467;  -13.176; 3515.999
502.738; 3062.848;  -10.646; 3971.274
503.326; 3428.842;   -9.525; 4403.796
503.913; 3728.287;  -10.856; 5161.749
504.500; 4209.678;  -11.586; 5986.420
505.088; 4636.743;  -10.336; 6381.201
505.675; 5069.786;   -6.355; 6925.547
506.262; 5494.955;   -9.046; 7619.060
506.849; 5878.716;  -10.416; 8733.969
507.436; 6290.921;  -10.305; 9790.121
508.023; 6740.192;   -5.496; 9985.472
508.610; 7626.614;   -7.856;10434.618
509.197; 9174.708;  -10.097;11198.435
509.784;10637.221;  -10.886;12391.194
510.371;11613.147;   -9.315;13603.713
510.958;12313.036;   -9.936;14426.586
511.545;12906.989;   -9.326;15243.775
512.132;13864.988;  -10.075;15945.876
512.719;14289.016;   -7.796;16340.369
513.305;15071.852;  -10.606;18011.766
513.892;16297.536;  -11.486;19754.971
514.479;18029.645;   -9.126;20967.805
515.066;19422.137;   -6.026;22299.793
515.652;19908.494;   -8.466;22908.660
516.239;21047.646;  -10.886;23798.875
516.825;23034.703;  -11.496;25567.275
517.412;24585.027;   -5.796;28154.959
517.998;25990.184;  -10.506;28344.111
518.585;26025.195;  -10.076;27134.219
519.171;25054.893;   -8.315;27268.576
519.758;24951.988;   -8.596;28964.129
520.344;25627.623;   -8.466;30664.494
520.930;27966.828;  -11.006;32550.605
521.516;28220.541;  -10.495;35422.895
522.103;27704.750;   -5.526;38280.004
522.689;28165.873;   -8.746;37835.117
523.275;29580.393;  -11.376;37288.613
523.861;30604.756;  -11.156;37281.395
524.447;31471.877;   -8.135;37846.949
525.033;30657.645;   -7.896;38321.949
525.619;31628.672;  -12.476;38579.285
526.205;35081.945;   -9.516;40622.875
526.791;36669.793;   -6.926;42258.836
527.377;39178.230;   -8.346;42966.902
527.963;41049.184;   -8.717;42018.949
528.549;39460.320;  -11.016;42476.828
529.135;39567.387;   -8.536;41854.852
529.721;38838.363;   -9.666;41237.711
530.306;36888.949;  -10.066;41259.445
530.892;37236.262;  -11.356;41506.047
531.478;37031.047;   -6.596;43559.613
532.063;37505.211;   -8.836;47695.563
532.649;40725.398;  -10.047;50808.324
533.235;43059.488;   -9.746;51787.500
533.820;42192.879;   -6.566;52145.035
534.406;40889.680;  -10.817;51133.488
534.991;43600.586;   -9.416;49996.805
535.576;44718.000;   -9.036;48882.852
536.162;45299.063;   -6.156;46942.285
536.747;45702.727;  -11.607;45711.746
537.333;45272.109;  -11.787;48510.180
537.918;44370.730;  -12.437;50439.891
538.503;44673.574;   -7.196;50863.711
539.088;43317.566;  -10.556;50906.922
539.673;42471.969;   -8.767;52621.965
540.259;43047.852;  -10.026;52368.094
540.844;43572.574;   -7.416;50879.109
541.429;39847.195;   -9.467;52077.777
542.014;37444.816;   -9.527;52716.695
542.599;38566.949;   -9.946;52363.281
543.184;41686.141;   -7.927;53187.137
543.769;43370.707;   -9.297;54697.605
544.354;43245.430;  -10.127;53913.914
544.938;43123.020;   -9.267;49680.164
545.523;46238.418;   -6.506;47386.277
546.108;50969.660;   -9.787;49151.949
546.693;51402.875;  -11.587;51384.637
547.278;51647.438;  -10.986;51853.254
547.862;48148.711;   -8.206;51173.750
548.447;44644.543;  -10.067;51691.395
549.031;46335.965;   -9.637;52456.703
549.616;48152.973;   -9.926;52714.516
550.201;46043.605;   -6.347;52414.598
550.785;43587.188;   -7.917;52355.059
551.370;42552.703;  -10.867;54589.453
551.954;44200.109;   -9.047;58267.348
552.538;46738.363;   -7.827;59062.176
553.123;46382.836;  -10.287;58115.285
553.707;42311.414;  -12.178;56556.285
554.291;43830.102;   -8.717;56201.668
554.876;46842.320;   -7.457;55335.762
555.460;48514.969;  -10.387;54155.703
556.044;48929.648;   -9.618;53721.484
556.628;48813.000;  -11.567;53731.016
557.212;47215.688;   -8.097;54312.531
557.796;47331.234;  -11.077;53797.773
558.380;45507.461;  -11.108;56145.984
558.964;43711.273;   -9.057;57277.930
559.548;43674.789;   -6.977;56459.641
560.132;43353.156;  -11.457;54434.543
560.716;41024.750;  -11.378;54800.617
561.300;41758.594;   -9.577;57606.945
561.884;44437.152;   -7.127;58972.445
562.467;45806.316;   -7.118;57327.570
563.051;46183.883;  -13.358;54962.434
563.635;43859.625;  -10.178;52594.473
564.219;43258.934;   -7.837;50610.410
564.802;42432.230;  -11.398;49551.180
565.386;43776.352;  -12.788;48370.953
565.969;44066.520;   -9.077;48178.871
566.553;43605.121;   -6.207;49957.305
567.136;41677.156;   -8.568;50369.594
567.720;40878.863;  -11.868;49492.004
568.303;41412.266;   -8.268;50616.352
568.887;40159.617;   -8.698;50727.148
569.470;39310.598;   -6.808;51698.379
570.053;37708.625;  -13.188;52122.078
570.637;35897.789;  -12.037;52536.438
571.220;35400.500;   -8.577;51186.098
571.803;36768.680;   -8.498;51032.762
572.386;38823.988;  -10.498;49609.887
572.969;40134.969;   -9.388;48285.926
573.552;36546.473;   -8.338;47624.285
574.135;35329.285;   -8.518;45498.641
574.718;33195.145;  -13.628;41970.434
575.301;31994.260;  -10.893;41447.137
575.884;30793.375;   -8.158;40923.836
576.467;35007.621;  -10.328;45267.723
577.050;34065.207;  -13.058;48175.543
577.633;32488.982;   -9.458;47729.328
578.216;33237.453;   -8.928;47579.793
578.799;34458.938;   -9.358;47820.996
579.381;34605.984;  -11.388;48115.551
579.964;32325.369;  -11.718;47333.766
580.547;32764.658;   -8.588;46668.969
581.129;34427.078;   -8.859;44466.141
581.712;33760.664;  -10.729;44164.922
582.294;35246.992;  -11.118;46477.855
582.877;33457.012;   -5.218;48244.254
583.459;33237.688;   -8.679;47437.895
584.042;34636.207;  -10.709;46943.219
584.624;37603.645;  -11.669;46792.227
585.206;37199.340;   -8.218;46557.250
585.789;34879.387;  -10.569;45793.773
586.371;34495.406;  -11.859;43836.391
586.953;33490.156;  -10.719;42972.492
587.536;34894.504;   -7.198;42487.211
588.118;36674.844;   -8.720;42086.414
588.700;35951.426;  -10.439;43389.930
589.282;35270.547;   -9.198;43646.039
589.864;34467.559;   -9.199;43438.109
590.446;32479.648;  -11.319;43151.926
591.028;31524.680;  -11.159;42781.867
591.610;31029.652;  -11.779;42839.098
592.192;28204.615;   -7.668;42820.402
592.774;29198.123;  -11.949;40724.277
593.356;30666.652;  -12.129;39874.789
593.937;29986.223;  -10.669;39980.648
594.519;31005.221;   -6.509;42069.633
595.101;32956.813;  -10.849;42976.031
