
Integration time [ms]:   3.276
Averaging Nr. [scans]: 1000
Smoothing Nr. [pixels]: 0
Data measured with spectrometer [name]: 7414430SP
Wave   ;Sample   ;Dark     ;Reference
[nm]   ;[counts] ;[counts] ;[counts] 

288.544;  150.734;    7.793;  793.890
289.143;  155.333;    7.462;  681.602
289.742;  155.079;    8.602;  828.814
290.341;  140.345;    1.321;  789.841
290.940;  129.986;   -0.709;  730.702
291.538;  130.803;    0.881;  881.108
292.137;  130.561;    0.122;  792.581
292.736;  135.073;   -1.929;  975.101
293.335;  132.216;   -8.229;  735.086
293.934;  131.141;   -5.279;  781.677
294.532;  129.468;   -1.369; 1031.958
295.131;  115.699;   -7.641;  834.394
295.730;  116.888;   -8.420;  809.588
296.328;  115.875;   -5.611;  783.442
296.927;  116.145;   -5.781;  779.652
297.525;  117.773;   -6.361;  781.236
298.124;  107.422;  -11.382;  654.009
298.722;  111.653;   -7.641;  761.933
299.321;  108.914;   -6.811;  708.597
299.919;  107.535;   -6.991;  751.918
300.518;  104.212;  -10.362;  689.338
301.116;  106.478;   -9.581;  691.381
301.715;  105.019;   -4.891;  730.222
302.313;  104.369;   -8.801;  704.943
302.911;  100.412;   -8.522;  733.830
303.509;  105.632;   -6.171;  925.627
304.108;  103.338;   -7.311;  760.383
304.706;  102.203;   -8.321;  801.664
305.304;   96.726;  -10.222;  796.707
305.902;  102.253;   -6.021;  784.484
306.500;   97.791;   -4.971;  728.200
307.098;   97.146;   -7.061;  746.560
307.696;   93.697;   -8.801;  780.432
308.294;   95.163;   -6.411;  731.359
308.892;   96.617;   -2.901;  759.769
309.490;   92.865;   -5.041;  712.161
310.088;   91.306;   -5.002;  788.444
310.686;   95.545;   -2.041;  821.749
311.284;   91.226;   -2.351;  766.040
311.882;   88.544;   -4.422;  731.225
312.480;   86.123;   -4.192;  697.167
313.078;   87.725;   -1.172;  808.331
313.675;   88.516;   -2.601;  691.600
314.273;   83.576;   -1.312;  797.837
314.871;   82.916;   -3.942;  589.829
315.468;   80.541;   -2.802;  652.090
316.066;   82.944;   -0.701;  694.427
316.664;   76.226;   -4.362;  656.351
317.261;   79.887;   -2.872;  910.128
317.859;   76.035;   -2.022;  768.735
318.456;   76.766;   -0.531;  830.096
319.054;   71.842;   -3.912;  787.828
319.651;   71.452;   -4.752;  759.928
320.249;   71.049;   -2.602;  810.188
320.846;   67.476;   -0.821;  714.286
321.443;   65.760;   -4.642;  832.135
322.041;   62.335;   -5.002;  812.315
322.638;   60.305;   -3.982;  701.456
323.235;   61.171;   -3.411;  665.683
323.833;   58.570;   -7.361;  740.354
324.430;   54.594;   -8.611;  615.900
325.027;   55.416;   -4.061;  876.855
325.624;   54.533;   -4.031;  644.532
326.221;   51.869;   -7.481;  689.717
326.818;   51.497;   -5.281;  818.332
327.415;   55.283;   -7.460;  748.828
328.012;   53.985;   -5.510;  690.585
328.609;   53.137;   -7.880;  731.389
329.206;   51.582;   -8.331;  778.621
329.803;   51.714;   -5.121;  737.841
330.400;   53.872;   -4.510;  704.260
330.997;   55.518;   -6.441;  817.147
331.594;   54.193;   -8.831;  788.185
332.191;   59.403;   -7.621;  728.722
332.787;   61.531;   -4.591;  844.463
333.384;   59.864;   -7.412;  763.093
333.981;   59.712;   -8.293;  815.687
334.578;   62.848;   -7.052;  708.378
335.174;   64.691;   -3.102;  731.469
335.771;   63.990;   -5.943;  836.456
336.367;   61.252;   -7.393;  710.631
336.964;   64.847;   -4.063;  793.266
337.561;   62.539;   -3.813;  731.112
338.157;   58.943;   -4.654;  911.916
338.754;   56.285;   -7.934;  796.589
339.350;   54.357;   -4.414;  722.493
339.946;   55.157;   -4.664;  773.135
340.543;   47.953;   -6.375;  846.136
341.139;   43.511;   -9.815;  720.836
341.735;   41.311;   -4.526;  772.593
342.332;   39.561;   -4.895;  691.472
342.928;   40.003;   -4.295;  795.394
343.524;   34.066;   -5.476;  761.684
344.120;   30.560;   -5.856;  738.562
344.716;   33.537;   -2.155;  723.717
345.313;   32.140;   -6.275;  795.342
345.909;   26.837;   -8.815;  627.336
346.505;   28.241;   -5.305;  740.247
347.101;   28.880;   -2.674;  827.864
347.697;   28.985;   -4.344;  785.398
348.293;   23.586;   -9.975;  627.244
348.889;   25.049;   -5.774;  745.914
349.485;   23.740;   -5.004;  688.205
350.081;   24.368;   -4.704;  772.592
350.676;   19.588;   -6.635;  691.606
351.272;   23.689;   -4.504;  809.530
351.868;   23.586;   -3.914;  780.497
352.464;   20.163;   -9.044;  723.932
353.059;   17.207;   -8.314;  646.017
353.655;   21.082;   -7.024;  777.063
354.251;   21.626;   -5.343;  759.845
354.846;   16.749;   -8.604;  740.646
355.442;   14.187;   -6.945;  753.071
356.038;   16.204;   -7.564;  751.708
356.633;   16.515;   -5.814;  728.594
357.229;   13.825;   -7.364;  724.757
357.824;   12.636;   -8.024;  703.600
358.420;   12.300;   -9.384;  679.726
359.015;   11.854;   -5.104;  695.357
359.610;   12.908;   -6.854;  763.920
360.206;    6.909;  -10.185;  603.240
360.801;   10.071;   -7.054;  646.503
361.396;   11.989;   -5.034;  725.975
361.992;    7.901;   -8.284;  668.220
362.587;    5.592;   -8.625;  670.160
363.182;    7.511;   -7.674;  689.631
363.777;    8.007;   -5.164;  738.242
364.372;    7.720;   -8.604;  737.314
364.967;    3.693;   -9.055;  680.744
365.563;    7.487;   -6.114;  815.567
366.158;    4.870;   -5.814;  685.161
366.753;    5.577;   -7.854;  649.263
367.348;    4.924;   -7.804;  746.056
367.942;    4.231;   -7.954;  697.298
368.537;    2.492;   -4.984;  754.245
369.132;    3.220;   -8.564;  703.428
369.727;   -0.643;   -8.855;  638.079
370.322;    0.195;   -6.245;  580.186
370.917;    0.297;   -6.425;  710.646
371.511;    2.321;   -6.294;  861.834
372.106;   -0.064;   -7.685;  776.964
372.701;   -3.586;   -7.335;  585.988
373.296;    1.628;   -4.564;  863.135
373.890;   -2.606;  -10.235;  647.840
374.485;   -4.828;   -7.885;  691.199
375.079;   -0.792;   -7.324;  738.685
375.674;    0.001;   -3.494;  812.970
376.268;   -3.347;   -8.525;  691.759
376.863;   -8.902;  -10.086;  580.327
377.457;   -3.522;   -7.025;  662.490
378.052;   -5.196;   -3.585;  764.884
378.646;   -5.634;   -7.595;  741.167
379.240;   -5.890;   -8.335;  721.176
379.835;   -5.106;   -5.785;  636.978
380.429;   -6.881;   -4.335;  562.557
381.023;   -7.722;   -6.805;  779.205
381.617;   -9.283;   -9.195;  680.106
382.212;   -5.987;   -6.905;  685.303
382.806;   -5.084;   -3.745;  760.690
383.400;   -8.879;   -7.745;  672.281
383.994;  -10.558;   -9.765;  664.870
384.588;   -6.453;   -6.564;  697.701
385.182;   -6.172;   -5.344;  726.624
385.776;   -7.138;   -8.514;  706.875
386.370;   -9.267;   -9.555;  681.968
386.964;   -8.553;   -8.715;  684.155
387.558;   -7.365;   -6.174;  598.360
388.152;  -11.265;   -8.725;  681.959
388.745;   -8.668;   -7.965;  814.707
389.339;   -6.957;   -5.924;  747.642
389.933;   -6.372;   -5.524;  695.370
390.527;   -7.256;   -7.114;  859.029
391.120;  -13.318;  -10.725;  595.318
391.714;  -10.229;   -8.035;  711.633
392.308;   -8.021;   -3.574;  780.253
392.901;  -11.245;   -7.245;  642.460
393.495;  -12.525;   -9.285;  595.414
394.089;   -9.769;   -5.895;  760.452
394.682;  -11.284;   -4.295;  697.188
395.275;  -11.693;   -9.875;  719.927
395.869;  -13.126;   -8.485;  667.314
396.462;  -11.617;   -7.455;  616.609
397.056;   -7.779;   -5.424;  776.621
397.649;  -11.906;   -6.605;  731.575
398.242;   -9.441;   -8.224;  712.645
398.836;   -8.833;   -7.474;  766.408
399.429;  -10.111;   -7.094;  631.041
400.022;  -13.084;   -9.475;  665.902
400.615;  -10.490;   -7.145;  805.609
401.208;   -8.469;   -7.174;  691.451
401.802;  -10.560;   -5.515;  699.329
402.395;  -12.854;   -9.875;  683.502
402.988;  -12.854;   -8.845;  696.627
403.581;   -9.722;   -8.874;  646.878
404.174;   -7.146;   -5.324;  686.568
404.767;  -10.751;   -9.575;  638.583
405.360;  -12.494;  -10.965;  621.445
405.953;   -7.214;   -8.764;  759.034
406.545;   -7.334;   -7.514;  725.342
407.138;  -11.045;  -10.025;  618.350
407.731;  -10.022;  -10.034;  613.303
408.324;   -5.761;   -9.374;  660.554
408.917;   -7.313;   -6.534;  681.864
409.509;   -8.769;   -8.004;  740.396
410.102;  -11.052;   -9.875;  643.948
410.695;   -4.245;   -8.604;  665.758
411.287;   -6.256;   -6.794;  599.821
411.880;   -7.288;   -9.334;  585.421
412.472;   -9.955;  -10.254;  613.092
413.065;   -6.883;   -6.714;  629.408
413.657;   -5.047;   -7.234;  576.678
414.250;   -5.032;  -10.544;  646.681
414.842;   -6.464;   -9.744;  676.353
415.434;   -3.983;   -6.994;  570.463
416.027;   -0.647;   -5.893;  652.196
416.619;   -2.061;   -7.264;  713.400
417.211;   -2.233;  -10.374;  599.352
417.804;    0.705;   -7.993;  628.499
418.396;   -3.234;   -7.234;  607.643
418.988;   -0.637;   -9.443;  659.238
419.580;   -4.659;  -10.724;  568.276
420.172;   -1.246;  -10.323;  536.196
420.764;    1.929;   -8.793;  672.482
421.356;    0.825;  -11.143;  636.898
421.948;    0.138;   -8.293;  677.661
422.540;    4.615;   -7.893;  680.027
423.132;    4.589;   -7.082;  600.641
423.724;    1.600;   -8.653;  561.267
424.316;    3.520;  -10.213;  621.345
424.908;    7.313;   -9.762;  591.517
425.500;    7.274;   -5.572;  647.978
426.092;    7.404;   -8.422;  648.268
426.683;    6.502;   -9.283;  684.836
427.275;   10.038;   -7.852;  641.471
427.867;   10.683;   -5.272;  668.948
428.458;   11.454;   -7.682;  732.344
429.050;   10.032;  -10.612;  680.749
429.642;   13.021;   -9.882;  743.124
430.233;   12.766;   -6.962;  569.356
430.825;   13.965;   -6.842;  724.809
431.416;   11.683;   -9.672;  698.241
432.008;   15.664;   -6.552;  651.723
432.599;   16.116;   -6.891;  656.073
433.190;   13.550;  -10.912;  637.670
433.782;   12.609;  -11.172;  590.395
434.373;   20.031;   -6.061;  884.765
434.964;   17.862;   -8.251;  602.920
435.556;   16.416;   -9.722;  634.537
436.147;   19.104;   -9.082;  758.490
436.738;   19.767;   -8.041;  701.099
437.329;   24.587;   -7.341;  721.723
437.920;   17.619;   -8.162;  666.688
438.511;   17.790;  -11.802;  564.526
439.103;   24.168;  -10.191;  623.998
439.694;   25.671;   -7.601;  681.583
440.285;   26.318;   -8.541;  764.432
440.876;   25.239;   -9.751;  845.738
441.466;   24.319;   -9.401;  575.162
442.057;   29.571;   -7.760;  665.814
442.648;   28.915;   -9.971;  746.255
443.239;   27.300;  -11.001;  620.477
443.830;   31.781;   -7.990;  704.958
444.421;   33.898;   -7.910;  655.474
445.011;   29.804;   -8.131;  693.619
445.602;   29.154;   -7.111;  743.126
446.193;   31.919;  -10.920;  488.117
446.783;   35.523;   -6.500;  640.397
447.374;   32.284;   -8.671;  692.759
447.964;   32.484;  -10.781;  713.770
448.555;   40.977;   -9.650;  822.742
449.145;   38.173;   -8.660;  662.853
449.736;   37.614;   -8.990;  803.179
450.326;   38.285;   -9.500;  713.626
450.917;   42.886;   -8.680;  675.324
451.507;   41.780;   -7.520;  600.661
452.097;   43.015;   -8.590;  746.267
452.688;   42.797;  -11.340;  742.160
453.278;   43.773;  -10.100;  566.840
453.868;   48.311;   -6.019;  793.550
454.458;   46.198;   -9.440;  651.141
455.048;   46.765;  -10.560;  711.783
455.639;   48.148;  -11.799;  567.096
456.229;   52.456;   -6.899;  710.694
456.819;   54.173;   -7.389;  751.158
457.409;   53.947;  -11.119;  773.993
457.999;   56.746;   -9.289;  737.505
458.589;   56.363;   -6.139;  686.606
459.179;   56.553;   -8.729;  717.658
459.769;   54.085;   -9.789;  627.099
460.358;   59.924;  -10.259;  797.262
460.948;   59.914;   -7.299;  689.503
461.538;   60.873;  -10.289;  660.677
462.128;   58.316;  -11.269;  664.934
462.717;   66.498;   -9.368;  710.326
463.307;   68.795;   -7.908;  705.846
463.897;   64.791;   -9.599;  656.942
464.486;   64.292;   -9.769;  837.128
465.076;   68.626;   -8.048;  733.776
465.666;   71.807;   -9.358;  652.900
466.255;   70.332;   -7.919;  785.651
466.845;   69.399;  -11.689;  666.749
467.434;   72.672;   -7.818;  725.873
468.023;   73.749;   -7.678;  658.357
468.613;   71.178;  -10.939;  713.946
469.202;   75.277;  -10.118;  646.507
469.791;   79.300;   -9.108;  737.811
470.381;   81.336;   -6.058;  742.813
470.970;   81.225;  -10.428;  711.099
471.559;   80.643;  -10.268;  733.291
472.148;   84.973;   -8.448;  675.737
472.738;   86.400;   -6.917;  765.466
473.327;   86.868;  -11.978;  637.529
473.916;   86.583;  -11.888;  737.446
474.505;   90.742;   -9.437;  751.703
475.094;   93.217;   -6.747;  806.570
475.683;   93.182;   -9.367;  797.699
476.272;   93.839;  -12.637;  730.632
476.861;   96.462;  -10.027;  706.754
477.449;  103.700;   -8.716;  728.487
478.038;   98.049;   -9.577;  692.513
478.627;   99.455;   -9.718;  714.852
479.216;  105.854;   -8.947;  769.441
479.805;  108.304;   -6.256;  783.375
480.393;  108.145;   -7.937; 1008.945
480.982;  107.801;   -7.717;  874.501
481.571;  114.290;   -9.266;  858.333
482.159;  114.052;   -7.636;  705.386
482.748;  114.731;   -9.667;  821.385
483.336;  119.221;  -10.376;  858.209
483.925;  120.757;   -7.147;  774.373
484.513;  126.526;   -7.996;  758.962
485.102;  124.077;  -10.027;  810.965
485.690;  133.351;  -10.446; 1011.050
486.278;  135.408;   -8.446;  979.329
486.867;  135.331;   -6.356;  809.662
487.455;  137.341;   -9.136;  898.229
488.043;  138.446;  -10.646;  748.361
488.631;  148.843;   -7.456; 1005.079
489.220;  151.764;   -6.636;  908.626
489.808;  152.384;  -11.036;  741.415
490.396;  160.758;  -10.246;  914.645
490.984;  167.061;   -8.556;  830.161
491.572;  177.716;   -5.886;  940.315
492.160;  183.259;   -9.486;  919.081
492.748;  197.729;  -10.976;  884.341
493.336;  221.016;   -8.776; 1019.693
493.924;  248.985;   -5.465;  958.077
494.512;  278.906;   -9.986; 1066.638
495.100;  318.103;  -10.636; 1103.280
495.687;  378.506;  -10.885; 1206.373
496.275;  445.599;   -8.126; 1150.796
496.863;  520.917;  -10.586; 1281.171
497.451;  627.929;  -11.926; 1386.805
498.038;  771.032;  -10.885; 1556.729
498.626;  884.971;   -6.315; 1741.407
499.214; 1046.985;   -7.326; 2016.609
499.801; 1261.251;  -11.906; 2220.633
500.389; 1519.138;  -10.466; 2312.494
500.976; 1834.727;   -5.236; 2744.849
501.564; 2299.995;   -8.936; 3148.565
502.151; 2690.288;  -13.176; 3515.999
502.738; 3142.317;  -10.646; 3971.274
503.326; 3565.727;   -9.525; 4403.796
503.913; 3992.668;  -10.856; 5161.749
504.500; 4403.158;  -11.586; 5986.420
505.088; 4793.892;  -10.336; 6381.201
505.675; 5377.204;   -6.355; 6925.547
506.262; 6129.544;   -9.046; 7619.060
506.849; 6913.226;  -10.416; 8733.969
507.436; 7484.719;  -10.305; 9790.121
508.023; 8129.338;   -5.496; 9985.472
508.610; 8373.746;   -7.856;10434.618
509.197; 9018.818;  -10.097;11198.435
509.784;10466.816;  -10.886;12391.194
510.371;11680.139;   -9.315;13603.713
510.958;12476.796;   -9.936;14426.586
511.545;13219.487;   -9.326;15243.775
512.132;14166.680;  -10.075;15945.876
512.719;14778.665;   -7.796;16340.369
513.305;15888.852;  -10.606;18011.766
513.892;16662.309;  -11.486;19754.971
514.479;17929.658;   -9.126;20967.805
515.066;19525.740;   -6.026;22299.793
515.652;21266.369;   -8.466;22908.660
516.239;22645.111;  -10.886;23798.875
516.825;23566.646;  -11.496;25567.275
517.412;24602.014;   -5.796;28154.959
517.998;25390.014;  -10.506;28344.111
518.585;25311.906;  -10.076;27134.219
519.171;25924.350;   -8.315;27268.576
519.758;27944.514;   -8.596;28964.129
520.344;30245.447;   -8.466;30664.494
520.930;29948.621;  -11.006;32550.605
521.516;31034.713;  -10.495;35422.895
522.103;33108.359;   -5.526;38280.004
522.689;33684.469;   -8.746;37835.117
523.275;33267.012;  -11.376;37288.613
523.861;34874.777;  -11.156;37281.395
524.447;36676.719;   -8.135;37846.949
525.033;36430.984;   -7.896;38321.949
525.619;36750.109;  -12.476;38579.285
526.205;38356.844;   -9.516;40622.875
526.791;41250.914;   -6.926;42258.836
527.377;41120.230;   -8.346;42966.902
527.963;42240.949;   -8.717;42018.949
528.549;41394.625;  -11.016;42476.828
529.135;40005.863;   -8.536;41854.852
529.721;38838.543;   -9.666;41237.711
530.306;38035.309;  -10.066;41259.445
530.892;37815.906;  -11.356;41506.047
531.478;39303.816;   -6.596;43559.613
532.063;43116.973;   -8.836;47695.563
532.649;44204.996;  -10.047;50808.324
533.235;44566.430;   -9.746;51787.500
533.820;44549.781;   -6.566;52145.035
534.406;45972.465;  -10.817;51133.488
534.991;45970.301;   -9.416;49996.805
535.576;44225.473;   -9.036;48882.852
536.162;44950.563;   -6.156;46942.285
536.747;46326.434;  -11.607;45711.746
537.333;49321.547;  -11.787;48510.180
537.918;52592.262;  -12.437;50439.891
538.503;51955.328;   -7.196;50863.711
539.088;48301.613;  -10.556;50906.922
539.673;48110.715;   -8.767;52621.965
540.259;48827.172;  -10.026;52368.094
540.844;46097.039;   -7.416;50879.109
541.429;47721.906;   -9.467;52077.777
542.014;50079.477;   -9.527;52716.695
542.599;49279.293;   -9.946;52363.281
543.184;46146.355;   -7.927;53187.137
543.769;47106.754;   -9.297;54697.605
544.354;47068.688;  -10.127;53913.914
544.938;45578.391;   -9.267;49680.164
545.523;47256.660;   -6.506;47386.277
546.108;50201.742;   -9.787;49151.949
546.693;52404.906;  -11.587;51384.637
547.278;52590.313;  -10.986;51853.254
547.862;49394.164;   -8.206;51173.750
548.447;44757.832;  -10.067;51691.395
549.031;44007.867;   -9.637;52456.703
549.616;48745.934;   -9.926;52714.516
550.201;48417.883;   -6.347;52414.598
550.785;49656.063;   -7.917;52355.059
551.370;48968.520;  -10.867;54589.453
551.954;48459.242;   -9.047;58267.348
552.538;49407.188;   -7.827;59062.176
553.123;47912.617;  -10.287;58115.285
553.707;45577.945;  -12.178;56556.285
554.291;47091.980;   -8.717;56201.668
554.876;50400.832;   -7.457;55335.762
555.460;50534.672;  -10.387;54155.703
556.044;50602.543;   -9.618;53721.484
556.628;48228.547;  -11.567;53731.016
557.212;46775.102;   -8.097;54312.531
557.796;45690.496;  -11.077;53797.773
558.380;45854.047;  -11.108;56145.984
558.964;45847.867;   -9.057;57277.930
559.548;46980.074;   -6.977;56459.641
560.132;45189.250;  -11.457;54434.543
560.716;43432.418;  -11.378;54800.617
561.300;44516.418;   -9.577;57606.945
561.884;45649.500;   -7.127;58972.445
562.467;43458.094;   -7.118;57327.570
563.051;42694.379;  -13.358;54962.434
563.635;44388.328;  -10.178;52594.473
564.219;45001.547;   -7.837;50610.410
564.802;45572.996;  -11.398;49551.180
565.386;45085.445;  -12.788;48370.953
565.969;44340.211;   -9.077;48178.871
566.553;43234.430;   -6.207;49957.305
567.136;44205.098;   -8.568;50369.594
567.720;40963.703;  -11.868;49492.004
568.303;38942.883;   -8.268;50616.352
568.887;39062.973;   -8.698;50727.148
569.470;39679.242;   -6.808;51698.379
570.053;38753.941;  -13.188;52122.078
570.637;36289.988;  -12.037;52536.438
571.220;35833.633;   -8.577;51186.098
571.803;36902.262;   -8.498;51032.762
572.386;39148.621;  -10.498;49609.887
572.969;41522.879;   -9.388;48285.926
573.552;40002.617;   -8.338;47624.285
574.135;38434.020;   -8.518;45498.641
574.718;35822.055;  -13.628;41970.434
575.301;35117.680;  -10.893;41447.137
575.884;34413.305;   -8.158;40923.836
576.467;35794.387;  -10.328;45267.723
577.050;37253.813;  -13.058;48175.543
577.633;38070.418;   -9.458;47729.328
578.216;37253.516;   -8.928;47579.793
578.799;36415.727;   -9.358;47820.996
579.381;35413.910;  -11.388;48115.551
579.964;33323.895;  -11.718;47333.766
580.547;35577.648;   -8.588;46668.969
581.129;36684.387;   -8.859;44466.141
581.712;37563.371;  -10.729;44164.922
582.294;37877.352;  -11.118;46477.855
582.877;37757.957;   -5.218;48244.254
583.459;35902.770;   -8.679;47437.895
584.042;33807.859;  -10.709;46943.219
584.624;33740.305;  -11.669;46792.227
585.206;33526.527;   -8.218;46557.250
585.789;33780.422;  -10.569;45793.773
586.371;36088.688;  -11.859;43836.391
586.953;36840.887;  -10.719;42972.492
587.536;37680.480;   -7.198;42487.211
588.118;38180.527;   -8.720;42086.414
588.700;34120.035;  -10.439;43389.930
589.282;33068.926;   -9.198;43646.039
589.864;34268.027;   -9.199;43438.109
590.446;35616.105;  -11.319;43151.926
591.028;35507.949;  -11.159;42781.867
591.610;34146.691;  -11.779;42839.098
592.192;31316.746;   -7.668;42820.402
592.774;29994.080;  -11.949;40724.277
593.356;28945.760;  -12.129;39874.789
593.937;27968.564;  -10.669;39980.648
594.519;30231.590;   -6.509;42069.633
595.101;32326.990;  -10.849;42976.031
