
Integration time [ms]:   3.276
Averaging Nr. [scans]: 1000
Smoothing Nr. [pixels]: 0
Data measured with spectrometer [name]: 7414430SP
Wave   ;Sample   ;Dark     ;Reference
[nm]   ;[counts] ;[counts] ;[counts] 

288.544;  152.020;    7.793;  793.890
289.143;  156.279;    7.462;  681.602
289.742;  155.404;    8.602;  828.814
290.341;  142.262;    1.321;  789.841
290.940;  131.206;   -0.709;  730.702
291.538;  131.676;    0.881;  881.108
292.137;  130.485;    0.122;  792.581
292.736;  135.630;   -1.929;  975.101
293.335;  133.056;   -8.229;  735.086
293.934;  132.543;   -5.279;  781.677
294.532;  130.893;   -1.369; 1031.958
295.131;  117.145;   -7.641;  834.394
295.730;  118.566;   -8.420;  809.588
296.328;  116.453;   -5.611;  783.442
296.927;  116.515;   -5.781;  779.652
297.525;  117.769;   -6.361;  781.236
298.124;  108.861;  -11.382;  654.009
298.722;  111.815;   -7.641;  761.933
299.321;  109.789;   -6.811;  708.597
299.919;  108.364;   -6.991;  751.918
300.518;  105.606;  -10.362;  689.338
301.116;  106.829;   -9.581;  691.381
301.715;  106.043;   -4.891;  730.222
302.313;  104.801;   -8.801;  704.943
302.911;  101.660;   -8.522;  733.830
303.509;  106.566;   -6.171;  925.627
304.108;  102.957;   -7.311;  760.383
304.706;  102.293;   -8.321;  801.664
305.304;   97.470;  -10.222;  796.707
305.902;  102.434;   -6.021;  784.484
306.500;   97.949;   -4.971;  728.200
307.098;   97.157;   -7.061;  746.560
307.696;   95.693;   -8.801;  780.432
308.294;   95.289;   -6.411;  731.359
308.892;   96.496;   -2.901;  759.769
309.490;   93.757;   -5.041;  712.161
310.088;   92.026;   -5.002;  788.444
310.686;   96.466;   -2.041;  821.749
311.284;   90.928;   -2.351;  766.040
311.882;   89.419;   -4.422;  731.225
312.480;   86.944;   -4.192;  697.167
313.078;   87.607;   -1.172;  808.331
313.675;   87.307;   -2.601;  691.600
314.273;   84.198;   -1.312;  797.837
314.871;   84.063;   -3.942;  589.829
315.468;   81.324;   -2.802;  652.090
316.066;   83.366;   -0.701;  694.427
316.664;   76.649;   -4.362;  656.351
317.261;   81.691;   -2.872;  910.128
317.859;   76.026;   -2.022;  768.735
318.456;   76.253;   -0.531;  830.096
319.054;   73.186;   -3.912;  787.828
319.651;   72.028;   -4.752;  759.928
320.249;   69.750;   -2.602;  810.188
320.846;   67.350;   -0.821;  714.286
321.443;   65.345;   -4.642;  832.135
322.041;   63.146;   -5.002;  812.315
322.638;   59.597;   -3.982;  701.456
323.235;   61.152;   -3.411;  665.683
323.833;   58.124;   -7.361;  740.354
324.430;   54.853;   -8.611;  615.900
325.027;   55.354;   -4.061;  876.855
325.624;   53.683;   -4.031;  644.532
326.221;   52.372;   -7.481;  689.717
326.818;   51.868;   -5.281;  818.332
327.415;   54.403;   -7.460;  748.828
328.012;   53.352;   -5.510;  690.585
328.609;   52.971;   -7.880;  731.389
329.206;   51.535;   -8.331;  778.621
329.803;   50.431;   -5.121;  737.841
330.400;   52.579;   -4.510;  704.260
330.997;   54.749;   -6.441;  817.147
331.594;   53.908;   -8.831;  788.185
332.191;   58.903;   -7.621;  728.722
332.787;   60.568;   -4.591;  844.463
333.384;   60.149;   -7.412;  763.093
333.981;   59.618;   -8.293;  815.687
334.578;   62.477;   -7.052;  708.378
335.174;   64.412;   -3.102;  731.469
335.771;   63.649;   -5.943;  836.456
336.367;   61.199;   -7.393;  710.631
336.964;   64.433;   -4.063;  793.266
337.561;   62.012;   -3.813;  731.112
338.157;   57.846;   -4.654;  911.916
338.754;   56.809;   -7.934;  796.589
339.350;   53.898;   -4.414;  722.493
339.946;   55.516;   -4.664;  773.135
340.543;   47.239;   -6.375;  846.136
341.139;   42.438;   -9.815;  720.836
341.735;   39.789;   -4.526;  772.593
342.332;   37.919;   -4.895;  691.472
342.928;   39.605;   -4.295;  795.394
343.524;   33.973;   -5.476;  761.684
344.120;   30.503;   -5.856;  738.562
344.716;   32.530;   -2.155;  723.717
345.313;   30.653;   -6.275;  795.342
345.909;   25.505;   -8.815;  627.336
346.505;   27.777;   -5.305;  740.247
347.101;   27.253;   -2.674;  827.864
347.697;   28.396;   -4.344;  785.398
348.293;   23.185;   -9.975;  627.244
348.889;   23.043;   -5.774;  745.914
349.485;   21.833;   -5.004;  688.205
350.081;   23.159;   -4.704;  772.592
350.676;   18.623;   -6.635;  691.606
351.272;   23.151;   -4.504;  809.530
351.868;   21.633;   -3.914;  780.497
352.464;   19.237;   -9.044;  723.932
353.059;   15.499;   -8.314;  646.017
353.655;   19.780;   -7.024;  777.063
354.251;   19.733;   -5.343;  759.845
354.846;   15.209;   -8.604;  740.646
355.442;   13.430;   -6.945;  753.071
356.038;   14.812;   -7.564;  751.708
356.633;   14.890;   -5.814;  728.594
357.229;   12.497;   -7.364;  724.757
357.824;   11.300;   -8.024;  703.600
358.420;   10.204;   -9.384;  679.726
359.015;    9.885;   -5.104;  695.357
359.610;   11.652;   -6.854;  763.920
360.206;    5.954;  -10.185;  603.240
360.801;    8.763;   -7.054;  646.503
361.396;   10.389;   -5.034;  725.975
361.992;    5.727;   -8.284;  668.220
362.587;    3.604;   -8.625;  670.160
363.182;    5.628;   -7.674;  689.631
363.777;    5.061;   -5.164;  738.242
364.372;    5.609;   -8.604;  737.314
364.967;    2.277;   -9.055;  680.744
365.563;    6.940;   -6.114;  815.567
366.158;    2.614;   -5.814;  685.161
366.753;    3.781;   -7.854;  649.263
367.348;    2.425;   -7.804;  746.056
367.942;    1.993;   -7.954;  697.298
368.537;    0.889;   -4.984;  754.245
369.132;    0.997;   -8.564;  703.428
369.727;   -2.774;   -8.855;  638.079
370.322;   -0.913;   -6.245;  580.186
370.917;   -2.073;   -6.425;  710.646
371.511;    0.669;   -6.294;  861.834
372.106;   -2.109;   -7.685;  776.964
372.701;   -5.053;   -7.335;  585.988
373.296;   -0.273;   -4.564;  863.135
373.890;   -4.695;  -10.235;  647.840
374.485;   -7.196;   -7.885;  691.199
375.079;   -2.679;   -7.324;  738.685
375.674;   -2.050;   -3.494;  812.970
376.268;   -6.131;   -8.525;  691.759
376.863;  -10.853;  -10.086;  580.327
377.457;   -5.867;   -7.025;  662.490
378.052;   -7.943;   -3.585;  764.884
378.646;   -8.065;   -7.595;  741.167
379.240;   -7.482;   -8.335;  721.176
379.835;   -7.148;   -5.785;  636.978
380.429;  -10.022;   -4.335;  562.557
381.023;   -9.445;   -6.805;  779.205
381.617;  -11.634;   -9.195;  680.106
382.212;   -8.218;   -6.905;  685.303
382.806;   -8.342;   -3.745;  760.690
383.400;  -11.856;   -7.745;  672.281
383.994;  -12.454;   -9.765;  664.870
384.588;   -9.341;   -6.564;  697.701
385.182;   -7.582;   -5.344;  726.624
385.776;   -9.730;   -8.514;  706.875
386.370;  -11.303;   -9.555;  681.968
386.964;  -11.528;   -8.715;  684.155
387.558;  -10.335;   -6.174;  598.360
388.152;  -13.159;   -8.725;  681.959
388.745;  -10.683;   -7.965;  814.707
389.339;   -9.187;   -5.924;  747.642
389.933;   -8.750;   -5.524;  695.370
390.527;   -9.637;   -7.114;  859.029
391.120;  -14.999;  -10.725;  595.318
391.714;  -12.861;   -8.035;  711.633
392.308;   -9.448;   -3.574;  780.253
392.901;  -13.771;   -7.245;  642.460
393.495;  -15.114;   -9.285;  595.414
394.089;  -13.055;   -5.895;  760.452
394.682;  -13.695;   -4.295;  697.188
395.275;  -14.070;   -9.875;  719.927
395.869;  -15.085;   -8.485;  667.314
396.462;  -13.587;   -7.455;  616.609
397.056;  -10.469;   -5.424;  776.621
397.649;  -14.532;   -6.605;  731.575
398.242;  -12.680;   -8.224;  712.645
398.836;  -11.271;   -7.474;  766.408
399.429;  -12.091;   -7.094;  631.041
400.022;  -16.609;   -9.475;  665.902
400.615;  -13.491;   -7.145;  805.609
401.208;  -11.959;   -7.174;  691.451
401.802;  -14.172;   -5.515;  699.329
402.395;  -15.027;   -9.875;  683.502
402.988;  -15.933;   -8.845;  696.627
403.581;  -12.185;   -8.874;  646.878
404.174;  -11.115;   -5.324;  686.568
404.767;  -13.700;   -9.575;  638.583
405.360;  -15.693;  -10.965;  621.445
405.953;  -10.498;   -8.764;  759.034
406.545;  -11.232;   -7.514;  725.342
407.138;  -14.443;  -10.025;  618.350
407.731;  -13.117;  -10.034;  613.303
408.324;   -8.748;   -9.374;  660.554
408.917;  -10.881;   -6.534;  681.864
409.509;  -12.030;   -8.004;  740.396
410.102;  -13.376;   -9.875;  643.948
410.695;   -7.400;   -8.604;  665.758
411.287;   -9.274;   -6.794;  599.821
411.880;  -10.449;   -9.334;  585.421
412.472;  -12.472;  -10.254;  613.092
413.065;   -9.598;   -6.714;  629.408
413.657;   -8.805;   -7.234;  576.678
414.250;   -7.871;  -10.544;  646.681
414.842;   -9.668;   -9.744;  676.353
415.434;   -8.269;   -6.994;  570.463
416.027;   -3.997;   -5.893;  652.196
416.619;   -5.740;   -7.264;  713.400
417.211;   -5.220;  -10.374;  599.352
417.804;   -2.136;   -7.993;  628.499
418.396;   -6.314;   -7.234;  607.643
418.988;   -3.916;   -9.443;  659.238
419.580;   -7.292;  -10.724;  568.276
420.172;   -5.125;  -10.323;  536.196
420.764;   -1.852;   -8.793;  672.482
421.356;   -2.972;  -11.143;  636.898
421.948;   -2.909;   -8.293;  677.661
422.540;    1.284;   -7.893;  680.027
423.132;    1.106;   -7.082;  600.641
423.724;   -2.460;   -8.653;  561.267
424.316;   -0.164;  -10.213;  621.345
424.908;    3.913;   -9.762;  591.517
425.500;    3.625;   -5.572;  647.978
426.092;    4.072;   -8.422;  648.268
426.683;    3.936;   -9.283;  684.836
427.275;    6.556;   -7.852;  641.471
427.867;    7.720;   -5.272;  668.948
428.458;    8.564;   -7.682;  732.344
429.050;    7.489;  -10.612;  680.749
429.642;    9.208;   -9.882;  743.124
430.233;    9.467;   -6.962;  569.356
430.825;    9.995;   -6.842;  724.809
431.416;    8.997;   -9.672;  698.241
432.008;   12.339;   -6.552;  651.723
432.599;   12.144;   -6.891;  656.073
433.190;    9.073;  -10.912;  637.670
433.782;    9.224;  -11.172;  590.395
434.373;   15.840;   -6.061;  884.765
434.964;   14.138;   -8.251;  602.920
435.556;   11.800;   -9.722;  634.537
436.147;   15.907;   -9.082;  758.490
436.738;   15.877;   -8.041;  701.099
437.329;   20.894;   -7.341;  721.723
437.920;   13.486;   -8.162;  666.688
438.511;   14.664;  -11.802;  564.526
439.103;   20.049;  -10.191;  623.998
439.694;   21.409;   -7.601;  681.583
440.285;   21.933;   -8.541;  764.432
440.876;   20.816;   -9.751;  845.738
441.466;   20.485;   -9.401;  575.162
442.057;   25.479;   -7.760;  665.814
442.648;   24.724;   -9.971;  746.255
443.239;   23.802;  -11.001;  620.477
443.830;   27.888;   -7.990;  704.958
444.421;   28.796;   -7.910;  655.474
445.011;   25.606;   -8.131;  693.619
445.602;   25.725;   -7.111;  743.126
446.193;   27.140;  -10.920;  488.117
446.783;   31.222;   -6.500;  640.397
447.374;   27.065;   -8.671;  692.759
447.964;   28.307;  -10.781;  713.770
448.555;   36.499;   -9.650;  822.742
449.145;   33.224;   -8.660;  662.853
449.736;   33.602;   -8.990;  803.179
450.326;   34.561;   -9.500;  713.626
450.917;   38.416;   -8.680;  675.324
451.507;   37.680;   -7.520;  600.661
452.097;   38.864;   -8.590;  746.267
452.688;   40.482;  -11.340;  742.160
453.278;   39.655;  -10.100;  566.840
453.868;   43.671;   -6.019;  793.550
454.458;   41.987;   -9.440;  651.141
455.048;   41.603;  -10.560;  711.783
455.639;   43.960;  -11.799;  567.096
456.229;   46.147;   -6.899;  710.694
456.819;   48.831;   -7.389;  751.158
457.409;   49.679;  -11.119;  773.993
457.999;   52.243;   -9.289;  737.505
458.589;   51.764;   -6.139;  686.606
459.179;   51.592;   -8.729;  717.658
459.769;   50.337;   -9.789;  627.099
460.358;   54.313;  -10.259;  797.262
460.948;   53.986;   -7.299;  689.503
461.538;   56.491;  -10.289;  660.677
462.128;   54.572;  -11.269;  664.934
462.717;   61.225;   -9.368;  710.326
463.307;   63.907;   -7.908;  705.846
463.897;   59.282;   -9.599;  656.942
464.486;   59.250;   -9.769;  837.128
465.076;   64.162;   -8.048;  733.776
465.666;   66.285;   -9.358;  652.900
466.255;   65.079;   -7.919;  785.651
466.845;   64.135;  -11.689;  666.749
467.434;   67.621;   -7.818;  725.873
468.023;   67.597;   -7.678;  658.357
468.613;   65.753;  -10.939;  713.946
469.202;   70.013;  -10.118;  646.507
469.791;   74.164;   -9.108;  737.811
470.381;   75.525;   -6.058;  742.813
470.970;   75.267;  -10.428;  711.099
471.559;   76.090;  -10.268;  733.291
472.148;   78.830;   -8.448;  675.737
472.738;   80.807;   -6.917;  765.466
473.327;   81.163;  -11.978;  637.529
473.916;   80.117;  -11.888;  737.446
474.505;   84.162;   -9.437;  751.703
475.094;   87.743;   -6.747;  806.570
475.683;   86.514;   -9.367;  797.699
476.272;   88.776;  -12.637;  730.632
476.861;   91.450;  -10.027;  706.754
477.449;   96.918;   -8.716;  728.487
478.038;   91.519;   -9.577;  692.513
478.627;   93.709;   -9.718;  714.852
479.216;   99.843;   -8.947;  769.441
479.805;  101.671;   -6.256;  783.375
480.393;  102.437;   -7.937; 1008.945
480.982;  101.752;   -7.717;  874.501
481.571;  107.280;   -9.266;  858.333
482.159;  107.994;   -7.636;  705.386
482.748;  107.354;   -9.667;  821.385
483.336;  112.653;  -10.376;  858.209
483.925;  113.189;   -7.147;  774.373
484.513;  119.753;   -7.996;  758.962
485.102;  116.257;  -10.027;  810.965
485.690;  125.545;  -10.446; 1011.050
486.278;  127.212;   -8.446;  979.329
486.867;  127.322;   -6.356;  809.662
487.455;  129.476;   -9.136;  898.229
488.043;  130.804;  -10.646;  748.361
488.631;  140.017;   -7.456; 1005.079
489.220;  143.537;   -6.636;  908.626
489.808;  143.684;  -11.036;  741.415
490.396;  152.321;  -10.246;  914.645
490.984;  158.195;   -8.556;  830.161
491.572;  168.058;   -5.886;  940.315
492.160;  173.740;   -9.486;  919.081
492.748;  185.780;  -10.976;  884.341
493.336;  208.161;   -8.776; 1019.693
493.924;  234.871;   -5.465;  958.077
494.512;  262.209;   -9.986; 1066.638
495.100;  300.484;  -10.636; 1103.280
495.687;  357.176;  -10.885; 1206.373
496.275;  418.617;   -8.126; 1150.796
496.863;  489.077;  -10.586; 1281.171
497.451;  590.791;  -11.926; 1386.805
498.038;  724.787;  -10.885; 1556.729
498.626;  831.032;   -6.315; 1741.407
499.214;  980.691;   -7.326; 2016.609
499.801; 1185.050;  -11.906; 2220.633
500.389; 1412.369;  -10.466; 2312.494
500.976; 1721.731;   -5.236; 2744.849
501.564; 2141.718;   -8.936; 3148.565
502.151; 2508.528;  -13.176; 3515.999
502.738; 2947.076;  -10.646; 3971.274
503.326; 3335.080;   -9.525; 4403.796
503.913; 3755.171;  -10.856; 5161.749
504.500; 4140.566;  -11.586; 5986.420
505.088; 4517.494;  -10.336; 6381.201
505.675; 5035.698;   -6.355; 6925.547
506.262; 5725.164;   -9.046; 7619.060
506.849; 6462.382;  -10.416; 8733.969
507.436; 7018.191;  -10.305; 9790.121
508.023; 7588.569;   -5.496; 9985.472
508.610; 7775.077;   -7.856;10434.618
509.197; 8366.536;  -10.097;11198.435
509.784; 9675.998;  -10.886;12391.194
510.371;10803.372;   -9.315;13603.713
510.958;11524.211;   -9.936;14426.586
511.545;12219.879;   -9.326;15243.775
512.132;13120.078;  -10.075;15945.876
512.719;13795.289;   -7.796;16340.369
513.305;14983.051;  -10.606;18011.766
513.892;15796.240;  -11.486;19754.971
514.479;16911.641;   -9.126;20967.805
515.066;18084.289;   -6.026;22299.793
515.652;19510.586;   -8.466;22908.660
516.239;20897.086;  -10.886;23798.875
516.825;21929.641;  -11.496;25567.275
517.412;23160.006;   -5.796;28154.959
517.998;23827.254;  -10.506;28344.111
518.585;23546.182;  -10.076;27134.219
519.171;23949.703;   -8.315;27268.576
519.758;26069.145;   -8.596;28964.129
520.344;27984.287;   -8.466;30664.494
520.930;27493.029;  -11.006;32550.605
521.516;28885.252;  -10.495;35422.895
522.103;30933.186;   -5.526;38280.004
522.689;31657.688;   -8.746;37835.117
523.275;30816.063;  -11.376;37288.613
523.861;31947.557;  -11.156;37281.395
524.447;33612.422;   -8.135;37846.949
525.033;33425.371;   -7.896;38321.949
525.619;33703.375;  -12.476;38579.285
526.205;34910.684;   -9.516;40622.875
526.791;37378.984;   -6.926;42258.836
527.377;36954.016;   -8.346;42966.902
527.963;37965.188;   -8.717;42018.949
528.549;37059.379;  -11.016;42476.828
529.135;35530.168;   -8.536;41854.852
529.721;33781.434;   -9.666;41237.711
530.306;31476.922;  -10.066;41259.445
530.892;29957.617;  -11.356;41506.047
531.478;31902.705;   -6.596;43559.613
532.063;37180.309;   -8.836;47695.563
532.649;39297.020;  -10.047;50808.324
533.235;40368.047;   -9.746;51787.500
533.820;40988.117;   -6.566;52145.035
534.406;41239.195;  -10.817;51133.488
534.991;39540.738;   -9.416;49996.805
535.576;35684.172;   -9.036;48882.852
536.162;33010.684;   -6.156;46942.285
536.747;32983.863;  -11.607;45711.746
537.333;38661.813;  -11.787;48510.180
537.918;45673.785;  -12.437;50439.891
538.503;48554.980;   -7.196;50863.711
539.088;47403.582;  -10.556;50906.922
539.673;48367.074;   -8.767;52621.965
540.259;48831.402;  -10.026;52368.094
540.844;45681.457;   -7.416;50879.109
541.429;46814.773;   -9.467;52077.777
542.014;49199.922;   -9.527;52716.695
542.599;48541.340;   -9.946;52363.281
543.184;45146.551;   -7.927;53187.137
543.769;46215.781;   -9.297;54697.605
544.354;46479.191;  -10.127;53913.914
544.938;45013.730;   -9.267;49680.164
545.523;46592.297;   -6.506;47386.277
546.108;48970.914;   -9.787;49151.949
546.693;50988.133;  -11.587;51384.637
547.278;51395.914;  -10.986;51853.254
547.862;48023.355;   -8.206;51173.750
548.447;43259.070;  -10.067;51691.395
549.031;42760.824;   -9.637;52456.703
549.616;47723.469;   -9.926;52714.516
550.201;47142.488;   -6.347;52414.598
550.785;48254.027;   -7.917;52355.059
551.370;47766.395;  -10.867;54589.453
551.954;47805.734;   -9.047;58267.348
552.538;48570.398;   -7.827;59062.176
553.123;46816.586;  -10.287;58115.285
553.707;44978.996;  -12.178;56556.285
554.291;46493.270;   -8.717;56201.668
554.876;49162.379;   -7.457;55335.762
555.460;49173.422;  -10.387;54155.703
556.044;49334.203;   -9.618;53721.484
556.628;47167.824;  -11.567;53731.016
557.212;46046.020;   -8.097;54312.531
557.796;44844.309;  -11.077;53797.773
558.380;44670.418;  -11.108;56145.984
558.964;44920.059;   -9.057;57277.930
559.548;45545.121;   -6.977;56459.641
560.132;43737.066;  -11.457;54434.543
560.716;42763.988;  -11.378;54800.617
561.300;44366.469;   -9.577;57606.945
561.884;45406.813;   -7.127;58972.445
562.467;43426.676;   -7.118;57327.570
563.051;42160.410;  -13.358;54962.434
563.635;43241.730;  -10.178;52594.473
564.219;44462.926;   -7.837;50610.410
564.802;45215.105;  -11.398;49551.180
565.386;44668.137;  -12.788;48370.953
565.969;44155.367;   -9.077;48178.871
566.553;43517.898;   -6.207;49957.305
567.136;44127.238;   -8.568;50369.594
567.720;40450.039;  -11.868;49492.004
568.303;38562.801;   -8.268;50616.352
568.887;38514.660;   -8.698;50727.148
569.470;39039.867;   -6.808;51698.379
570.053;38141.203;  -13.188;52122.078
570.637;35674.938;  -12.037;52536.438
571.220;35166.086;   -8.577;51186.098
571.803;35860.461;   -8.498;51032.762
572.386;38434.063;  -10.498;49609.887
572.969;41039.559;   -9.388;48285.926
573.552;39259.523;   -8.338;47624.285
574.135;37943.512;   -8.518;45498.641
574.718;35188.777;  -13.628;41970.434
575.301;34179.730;  -10.893;41447.137
575.884;33170.680;   -8.158;40923.836
576.467;34469.941;  -10.328;45267.723
577.050;36357.699;  -13.058;48175.543
577.633;37502.922;   -9.458;47729.328
578.216;36566.988;   -8.928;47579.793
578.799;35649.664;   -9.358;47820.996
579.381;34367.613;  -11.388;48115.551
579.964;32544.084;  -11.718;47333.766
580.547;34447.785;   -8.588;46668.969
581.129;35327.621;   -8.859;44466.141
581.712;36110.512;  -10.729;44164.922
582.294;36597.359;  -11.118;46477.855
582.877;36756.629;   -5.218;48244.254
583.459;34796.859;   -8.679;47437.895
584.042;32561.424;  -10.709;46943.219
584.624;32787.195;  -11.669;46792.227
585.206;32759.629;   -8.218;46557.250
585.789;33494.512;  -10.569;45793.773
586.371;35839.137;  -11.859;43836.391
586.953;36280.402;  -10.719;42972.492
587.536;37138.723;   -7.198;42487.211
588.118;37159.719;   -8.720;42086.414
588.700;33549.977;  -10.439;43389.930
589.282;32678.508;   -9.198;43646.039
589.864;33800.125;   -9.199;43438.109
590.446;34968.480;  -11.319;43151.926
591.028;34366.188;  -11.159;42781.867
591.610;33173.617;  -11.779;42839.098
592.192;30912.277;   -7.668;42820.402
592.774;29652.516;  -11.949;40724.277
593.356;28766.748;  -12.129;39874.789
593.937;27995.666;  -10.669;39980.648
594.519;30528.125;   -6.509;42069.633
595.101;32461.947;  -10.849;42976.031
