
Integration time [ms]:   3.276
Averaging Nr. [scans]: 1000
Smoothing Nr. [pixels]: 0
Data measured with spectrometer [name]: 7414430SP
Wave   ;Sample   ;Dark     ;Reference
[nm]   ;[counts] ;[counts] ;[counts] 

288.544;  150.068;    7.793;  793.890
289.143;  154.656;    7.462;  681.602
289.742;  154.456;    8.602;  828.814
290.341;  138.873;    1.321;  789.841
290.940;  128.376;   -0.709;  730.702
291.538;  129.884;    0.881;  881.108
292.137;  130.211;    0.122;  792.581
292.736;  134.671;   -1.929;  975.101
293.335;  130.223;   -8.229;  735.086
293.934;  131.764;   -5.279;  781.677
294.532;  128.926;   -1.369; 1031.958
295.131;  115.210;   -7.641;  834.394
295.730;  115.305;   -8.420;  809.588
296.328;  114.685;   -5.611;  783.442
296.927;  115.425;   -5.781;  779.652
297.525;  117.311;   -6.361;  781.236
298.124;  106.256;  -11.382;  654.009
298.722;  110.800;   -7.641;  761.933
299.321;  108.387;   -6.811;  708.597
299.919;  106.735;   -6.991;  751.918
300.518;  103.234;  -10.362;  689.338
301.116;  104.502;   -9.581;  691.381
301.715;  104.775;   -4.891;  730.222
302.313;  104.142;   -8.801;  704.943
302.911;   99.497;   -8.522;  733.830
303.509;  104.414;   -6.171;  925.627
304.108;  102.422;   -7.311;  760.383
304.706;  101.584;   -8.321;  801.664
305.304;   95.016;  -10.222;  796.707
305.902;  101.149;   -6.021;  784.484
306.500;   97.120;   -4.971;  728.200
307.098;   95.488;   -7.061;  746.560
307.696;   93.415;   -8.801;  780.432
308.294;   94.674;   -6.411;  731.359
308.892;   95.687;   -2.901;  759.769
309.490;   92.445;   -5.041;  712.161
310.088;   90.669;   -5.002;  788.444
310.686;   95.101;   -2.041;  821.749
311.284;   90.532;   -2.351;  766.040
311.882;   88.338;   -4.422;  731.225
312.480;   85.047;   -4.192;  697.167
313.078;   86.376;   -1.172;  808.331
313.675;   87.758;   -2.601;  691.600
314.273;   82.727;   -1.312;  797.837
314.871;   81.431;   -3.942;  589.829
315.468;   79.378;   -2.802;  652.090
316.066;   83.039;   -0.701;  694.427
316.664;   75.622;   -4.362;  656.351
317.261;   79.077;   -2.872;  910.128
317.859;   74.906;   -2.022;  768.735
318.456;   76.209;   -0.531;  830.096
319.054;   71.512;   -3.912;  787.828
319.651;   70.577;   -4.752;  759.928
320.249;   68.255;   -2.602;  810.188
320.846;   67.186;   -0.821;  714.286
321.443;   64.148;   -4.642;  832.135
322.041;   61.794;   -5.002;  812.315
322.638;   59.332;   -3.982;  701.456
323.235;   60.355;   -3.411;  665.683
323.833;   57.707;   -7.361;  740.354
324.430;   52.188;   -8.611;  615.900
325.027;   54.212;   -4.061;  876.855
325.624;   53.958;   -4.031;  644.532
326.221;   50.742;   -7.481;  689.717
326.818;   50.407;   -5.281;  818.332
327.415;   53.532;   -7.460;  748.828
328.012;   53.257;   -5.510;  690.585
328.609;   51.110;   -7.880;  731.389
329.206;   49.884;   -8.331;  778.621
329.803;   48.906;   -5.121;  737.841
330.400;   52.925;   -4.510;  704.260
330.997;   54.394;   -6.441;  817.147
331.594;   52.103;   -8.831;  788.185
332.191;   57.454;   -7.621;  728.722
332.787;   60.765;   -4.591;  844.463
333.384;   59.683;   -7.412;  763.093
333.981;   57.470;   -8.293;  815.687
334.578;   60.496;   -7.052;  708.378
335.174;   63.751;   -3.102;  731.469
335.771;   63.243;   -5.943;  836.456
336.367;   59.521;   -7.393;  710.631
336.964;   62.997;   -4.063;  793.266
337.561;   61.770;   -3.813;  731.112
338.157;   57.549;   -4.654;  911.916
338.754;   55.087;   -7.934;  796.589
339.350;   52.996;   -4.414;  722.493
339.946;   55.354;   -4.664;  773.135
340.543;   46.767;   -6.375;  846.136
341.139;   41.352;   -9.815;  720.836
341.735;   40.041;   -4.526;  772.593
342.332;   37.158;   -4.895;  691.472
342.928;   38.371;   -4.295;  795.394
343.524;   32.160;   -5.476;  761.684
344.120;   29.036;   -5.856;  738.562
344.716;   32.064;   -2.155;  723.717
345.313;   30.125;   -6.275;  795.342
345.909;   24.528;   -8.815;  627.336
346.505;   26.934;   -5.305;  740.247
347.101;   26.837;   -2.674;  827.864
347.697;   27.330;   -4.344;  785.398
348.293;   21.557;   -9.975;  627.244
348.889;   22.904;   -5.774;  745.914
349.485;   22.118;   -5.004;  688.205
350.081;   23.044;   -4.704;  772.592
350.676;   18.016;   -6.635;  691.606
351.272;   23.342;   -4.504;  809.530
351.868;   21.610;   -3.914;  780.497
352.464;   18.877;   -9.044;  723.932
353.059;   15.202;   -8.314;  646.017
353.655;   18.722;   -7.024;  777.063
354.251;   19.692;   -5.343;  759.845
354.846;   14.411;   -8.604;  740.646
355.442;   12.078;   -6.945;  753.071
356.038;   14.145;   -7.564;  751.708
356.633;   14.780;   -5.814;  728.594
357.229;   12.401;   -7.364;  724.757
357.824;   10.550;   -8.024;  703.600
358.420;    9.348;   -9.384;  679.726
359.015;   10.121;   -5.104;  695.357
359.610;   11.198;   -6.854;  763.920
360.206;    4.570;  -10.185;  603.240
360.801;    7.313;   -7.054;  646.503
361.396;   10.702;   -5.034;  725.975
361.992;    5.295;   -8.284;  668.220
362.587;    2.648;   -8.625;  670.160
363.182;    4.355;   -7.674;  689.631
363.777;    6.037;   -5.164;  738.242
364.372;    5.740;   -8.604;  737.314
364.967;    0.899;   -9.055;  680.744
365.563;    5.715;   -6.114;  815.567
366.158;    3.360;   -5.814;  685.161
366.753;    3.386;   -7.854;  649.263
367.348;    1.522;   -7.804;  746.056
367.942;    1.627;   -7.954;  697.298
368.537;    0.842;   -4.984;  754.245
369.132;    1.657;   -8.564;  703.428
369.727;   -3.385;   -8.855;  638.079
370.322;   -2.090;   -6.245;  580.186
370.917;   -1.062;   -6.425;  710.646
371.511;    0.532;   -6.294;  861.834
372.106;   -3.625;   -7.685;  776.964
372.701;   -6.224;   -7.335;  585.988
373.296;   -0.007;   -4.564;  863.135
373.890;   -5.252;  -10.235;  647.840
374.485;   -7.578;   -7.885;  691.199
375.079;   -3.698;   -7.324;  738.685
375.674;   -1.584;   -3.494;  812.970
376.268;   -6.110;   -8.525;  691.759
376.863;  -11.752;  -10.086;  580.327
377.457;   -5.906;   -7.025;  662.490
378.052;   -7.621;   -3.585;  764.884
378.646;   -8.297;   -7.595;  741.167
379.240;   -9.203;   -8.335;  721.176
379.835;   -7.971;   -5.785;  636.978
380.429;   -9.546;   -4.335;  562.557
381.023;  -10.362;   -6.805;  779.205
381.617;  -12.011;   -9.195;  680.106
382.212;   -9.711;   -6.905;  685.303
382.806;   -8.171;   -3.745;  760.690
383.400;  -12.203;   -7.745;  672.281
383.994;  -14.131;   -9.765;  664.870
384.588;   -9.048;   -6.564;  697.701
385.182;   -7.803;   -5.344;  726.624
385.776;   -9.206;   -8.514;  706.875
386.370;  -13.120;   -9.555;  681.968
386.964;  -11.823;   -8.715;  684.155
387.558;   -9.929;   -6.174;  598.360
388.152;  -13.313;   -8.725;  681.959
388.745;  -12.604;   -7.965;  814.707
389.339;  -10.069;   -5.924;  747.642
389.933;   -9.010;   -5.524;  695.370
390.527;  -10.334;   -7.114;  859.029
391.120;  -16.044;  -10.725;  595.318
391.714;  -12.999;   -8.035;  711.633
392.308;  -10.489;   -3.574;  780.253
392.901;  -13.574;   -7.245;  642.460
393.495;  -15.320;   -9.285;  595.414
394.089;  -13.900;   -5.895;  760.452
394.682;  -13.802;   -4.295;  697.188
395.275;  -14.737;   -9.875;  719.927
395.869;  -15.801;   -8.485;  667.314
396.462;  -14.474;   -7.455;  616.609
397.056;  -10.280;   -5.424;  776.621
397.649;  -14.779;   -6.605;  731.575
398.242;  -12.622;   -8.224;  712.645
398.836;  -11.979;   -7.474;  766.408
399.429;  -12.992;   -7.094;  631.041
400.022;  -16.168;   -9.475;  665.902
400.615;  -14.473;   -7.145;  805.609
401.208;  -11.574;   -7.174;  691.451
401.802;  -14.285;   -5.515;  699.329
402.395;  -15.182;   -9.875;  683.502
402.988;  -16.845;   -8.845;  696.627
403.581;  -13.281;   -8.874;  646.878
404.174;  -10.508;   -5.324;  686.568
404.767;  -14.237;   -9.575;  638.583
405.360;  -16.183;  -10.965;  621.445
405.953;  -10.878;   -8.764;  759.034
406.545;  -10.071;   -7.514;  725.342
407.138;  -14.766;  -10.025;  618.350
407.731;  -13.515;  -10.034;  613.303
408.324;   -9.511;   -9.374;  660.554
408.917;  -10.038;   -6.534;  681.864
409.509;  -12.626;   -8.004;  740.396
410.102;  -13.809;   -9.875;  643.948
410.695;   -8.108;   -8.604;  665.758
411.287;   -8.794;   -6.794;  599.821
411.880;  -10.654;   -9.334;  585.421
412.472;  -13.590;  -10.254;  613.092
413.065;  -10.290;   -6.714;  629.408
413.657;   -8.368;   -7.234;  576.678
414.250;   -8.300;  -10.544;  646.681
414.842;  -10.634;   -9.744;  676.353
415.434;   -8.158;   -6.994;  570.463
416.027;   -3.900;   -5.893;  652.196
416.619;   -6.009;   -7.264;  713.400
417.211;   -6.536;  -10.374;  599.352
417.804;   -2.644;   -7.993;  628.499
418.396;   -6.920;   -7.234;  607.643
418.988;   -5.339;   -9.443;  659.238
419.580;   -8.790;  -10.724;  568.276
420.172;   -5.773;  -10.323;  536.196
420.764;   -1.405;   -8.793;  672.482
421.356;   -2.913;  -11.143;  636.898
421.948;   -3.773;   -8.293;  677.661
422.540;    1.486;   -7.893;  680.027
423.132;    0.451;   -7.082;  600.641
423.724;   -2.585;   -8.653;  561.267
424.316;   -1.212;  -10.213;  621.345
424.908;    3.083;   -9.762;  591.517
425.500;    3.519;   -5.572;  647.978
426.092;    3.676;   -8.422;  648.268
426.683;    2.546;   -9.283;  684.836
427.275;    5.419;   -7.852;  641.471
427.867;    7.922;   -5.272;  668.948
428.458;    7.492;   -7.682;  732.344
429.050;    5.920;  -10.612;  680.749
429.642;    8.632;   -9.882;  743.124
430.233;    9.016;   -6.962;  569.356
430.825;   10.238;   -6.842;  724.809
431.416;    7.406;   -9.672;  698.241
432.008;   11.129;   -6.552;  651.723
432.599;   11.827;   -6.891;  656.073
433.190;    9.298;  -10.912;  637.670
433.782;    8.054;  -11.172;  590.395
434.373;   16.235;   -6.061;  884.765
434.964;   14.070;   -8.251;  602.920
435.556;   11.188;   -9.722;  634.537
436.147;   14.474;   -9.082;  758.490
436.738;   14.864;   -8.041;  701.099
437.329;   19.923;   -7.341;  721.723
437.920;   12.623;   -8.162;  666.688
438.511;   13.030;  -11.802;  564.526
439.103;   19.975;  -10.191;  623.998
439.694;   21.530;   -7.601;  681.583
440.285;   21.862;   -8.541;  764.432
440.876;   20.258;   -9.751;  845.738
441.466;   19.456;   -9.401;  575.162
442.057;   24.532;   -7.760;  665.814
442.648;   23.021;   -9.971;  746.255
443.239;   22.125;  -11.001;  620.477
443.830;   27.002;   -7.990;  704.958
444.421;   28.710;   -7.910;  655.474
445.011;   24.727;   -8.131;  693.619
445.602;   25.153;   -7.111;  743.126
446.193;   26.567;  -10.920;  488.117
446.783;   31.476;   -6.500;  640.397
447.374;   25.819;   -8.671;  692.759
447.964;   26.738;  -10.781;  713.770
448.555;   35.449;   -9.650;  822.742
449.145;   32.018;   -8.660;  662.853
449.736;   32.372;   -8.990;  803.179
450.326;   32.698;   -9.500;  713.626
450.917;   37.564;   -8.680;  675.324
451.507;   36.744;   -7.520;  600.661
452.097;   37.052;   -8.590;  746.267
452.688;   37.887;  -11.340;  742.160
453.278;   38.157;  -10.100;  566.840
453.868;   42.691;   -6.019;  793.550
454.458;   40.092;   -9.440;  651.141
455.048;   40.909;  -10.560;  711.783
455.639;   41.951;  -11.799;  567.096
456.229;   45.876;   -6.899;  710.694
456.819;   47.717;   -7.389;  751.158
457.409;   48.135;  -11.119;  773.993
457.999;   50.776;   -9.289;  737.505
458.589;   50.890;   -6.139;  686.606
459.179;   50.758;   -8.729;  717.658
459.769;   48.446;   -9.789;  627.099
460.358;   53.588;  -10.259;  797.262
460.948;   54.184;   -7.299;  689.503
461.538;   55.682;  -10.289;  660.677
462.128;   53.202;  -11.269;  664.934
462.717;   59.354;   -9.368;  710.326
463.307;   63.093;   -7.908;  705.846
463.897;   57.848;   -9.599;  656.942
464.486;   57.858;   -9.769;  837.128
465.076;   61.826;   -8.048;  733.776
465.666;   66.491;   -9.358;  652.900
466.255;   62.941;   -7.919;  785.651
466.845;   61.903;  -11.689;  666.749
467.434;   65.776;   -7.818;  725.873
468.023;   66.064;   -7.678;  658.357
468.613;   64.751;  -10.939;  713.946
469.202;   68.946;  -10.118;  646.507
469.791;   72.804;   -9.108;  737.811
470.381;   74.077;   -6.058;  742.813
470.970;   74.069;  -10.428;  711.099
471.559;   73.996;  -10.268;  733.291
472.148;   76.725;   -8.448;  675.737
472.738;   79.466;   -6.917;  765.466
473.327;   79.167;  -11.978;  637.529
473.916;   78.395;  -11.888;  737.446
474.505;   83.549;   -9.437;  751.703
475.094;   85.971;   -6.747;  806.570
475.683;   86.076;   -9.367;  797.699
476.272;   85.887;  -12.637;  730.632
476.861;   88.644;  -10.027;  706.754
477.449;   96.034;   -8.716;  728.487
478.038;   90.147;   -9.577;  692.513
478.627;   90.868;   -9.718;  714.852
479.216;   97.646;   -8.947;  769.441
479.805;  100.529;   -6.256;  783.375
480.393;  100.871;   -7.937; 1008.945
480.982;   99.713;   -7.717;  874.501
481.571;  105.673;   -9.266;  858.333
482.159;  106.247;   -7.636;  705.386
482.748;  106.063;   -9.667;  821.385
483.336;  111.190;  -10.376;  858.209
483.925;  111.397;   -7.147;  774.373
484.513;  118.528;   -7.996;  758.962
485.102;  115.599;  -10.027;  810.965
485.690;  123.274;  -10.446; 1011.050
486.278;  125.560;   -8.446;  979.329
486.867;  126.932;   -6.356;  809.662
487.455;  127.677;   -9.136;  898.229
488.043;  129.563;  -10.646;  748.361
488.631;  138.333;   -7.456; 1005.079
489.220;  143.685;   -6.636;  908.626
489.808;  142.278;  -11.036;  741.415
490.396;  151.205;  -10.246;  914.645
490.984;  157.819;   -8.556;  830.161
491.572;  168.037;   -5.886;  940.315
492.160;  173.960;   -9.486;  919.081
492.748;  186.859;  -10.976;  884.341
493.336;  211.443;   -8.776; 1019.693
493.924;  239.952;   -5.465;  958.077
494.512;  269.111;   -9.986; 1066.638
495.100;  308.323;  -10.636; 1103.280
495.687;  365.713;  -10.885; 1206.373
496.275;  431.485;   -8.126; 1150.796
496.863;  507.980;  -10.586; 1281.171
497.451;  612.586;  -11.926; 1386.805
498.038;  746.833;  -10.885; 1556.729
498.626;  861.695;   -6.315; 1741.407
499.214; 1026.473;   -7.326; 2016.609
499.801; 1228.260;  -11.906; 2220.633
500.389; 1493.484;  -10.466; 2312.494
500.976; 1809.626;   -5.236; 2744.849
501.564; 2264.576;   -8.936; 3148.565
502.151; 2644.190;  -13.176; 3515.999
502.738; 3110.181;  -10.646; 3971.274
503.326; 3521.406;   -9.525; 4403.796
503.913; 3934.616;  -10.856; 5161.749
504.500; 4317.079;  -11.586; 5986.420
505.088; 4778.517;  -10.336; 6381.201
505.675; 5321.837;   -6.355; 6925.547
506.262; 6057.356;   -9.046; 7619.060
506.849; 6782.563;  -10.416; 8733.969
507.436; 7272.338;  -10.305; 9790.121
508.023; 7867.633;   -5.496; 9985.472
508.610; 8137.231;   -7.856;10434.618
509.197; 8747.205;  -10.097;11198.435
509.784;10096.837;  -10.886;12391.194
510.371;11195.556;   -9.315;13603.713
510.958;11971.646;   -9.936;14426.586
511.545;12695.909;   -9.326;15243.775
512.132;13471.030;  -10.075;15945.876
512.719;13979.234;   -7.796;16340.369
513.305;14911.165;  -10.606;18011.766
513.892;15761.920;  -11.486;19754.971
514.479;17112.064;   -9.126;20967.805
515.066;18581.582;   -6.026;22299.793
515.652;20021.693;   -8.466;22908.660
516.239;21196.271;  -10.886;23798.875
516.825;21960.381;  -11.496;25567.275
517.412;22868.494;   -5.796;28154.959
517.998;23562.701;  -10.506;28344.111
518.585;23693.971;  -10.076;27134.219
519.171;24101.428;   -8.315;27268.576
519.758;25583.234;   -8.596;28964.129
520.344;27393.779;   -8.466;30664.494
520.930;27137.586;  -11.006;32550.605
521.516;28048.146;  -10.495;35422.895
522.103;30205.633;   -5.526;38280.004
522.689;30652.900;   -8.746;37835.117
523.275;30227.260;  -11.376;37288.613
523.861;31542.291;  -11.156;37281.395
524.447;32955.250;   -8.135;37846.949
525.033;32771.680;   -7.896;38321.949
525.619;32693.922;  -12.476;38579.285
526.205;33679.340;   -9.516;40622.875
526.791;35534.621;   -6.926;42258.836
527.377;34531.711;   -8.346;42966.902
527.963;33432.938;   -8.717;42018.949
528.549;30924.105;  -11.016;42476.828
529.135;30842.771;   -8.536;41854.852
529.721;32758.316;   -9.666;41237.711
530.306;33956.773;  -10.066;41259.445
530.892;34502.512;  -11.356;41506.047
531.478;36133.254;   -6.596;43559.613
532.063;39130.680;   -8.836;47695.563
532.649;39823.922;  -10.047;50808.324
533.235;40172.613;   -9.746;51787.500
533.820;40204.215;   -6.566;52145.035
534.406;41389.758;  -10.817;51133.488
534.991;40881.613;   -9.416;49996.805
535.576;39153.977;   -9.036;48882.852
536.162;39263.949;   -6.156;46942.285
536.747;39361.555;  -11.607;45711.746
537.333;40746.195;  -11.787;48510.180
537.918;41040.680;  -12.437;50439.891
538.503;37912.133;   -7.196;50863.711
539.088;34610.223;  -10.556;50906.922
539.673;36867.031;   -8.767;52621.965
540.259;40881.352;  -10.026;52368.094
540.844;41294.242;   -7.416;50879.109
541.429;43880.891;   -9.467;52077.777
542.014;46826.539;   -9.527;52716.695
542.599;45894.375;   -9.946;52363.281
543.184;43310.781;   -7.927;53187.137
543.769;44795.141;   -9.297;54697.605
544.354;44512.965;  -10.127;53913.914
544.938;43282.254;   -9.267;49680.164
545.523;45166.891;   -6.506;47386.277
546.108;48107.727;   -9.787;49151.949
546.693;49988.059;  -11.587;51384.637
547.278;49890.262;  -10.986;51853.254
547.862;47133.621;   -8.206;51173.750
548.447;42542.719;  -10.067;51691.395
549.031;42070.895;   -9.637;52456.703
549.616;46875.605;   -9.926;52714.516
550.201;46132.973;   -6.347;52414.598
550.785;47223.762;   -7.917;52355.059
551.370;46303.457;  -10.867;54589.453
551.954;45877.457;   -9.047;58267.348
552.538;46685.402;   -7.827;59062.176
553.123;44964.730;  -10.287;58115.285
553.707;42600.219;  -12.178;56556.285
554.291;44388.117;   -8.717;56201.668
554.876;47278.500;   -7.457;55335.762
555.460;47324.637;  -10.387;54155.703
556.044;47810.965;   -9.618;53721.484
556.628;46595.414;  -11.567;53731.016
557.212;45550.668;   -8.097;54312.531
557.796;43803.957;  -11.077;53797.773
558.380;43927.066;  -11.108;56145.984
558.964;44622.719;   -9.057;57277.930
559.548;46068.672;   -6.977;56459.641
560.132;44331.832;  -11.457;54434.543
560.716;42614.875;  -11.378;54800.617
561.300;43600.070;   -9.577;57606.945
561.884;44915.754;   -7.127;58972.445
562.467;43042.316;   -7.118;57327.570
563.051;42423.230;  -13.358;54962.434
563.635;43621.730;  -10.178;52594.473
564.219;44022.133;   -7.837;50610.410
564.802;45065.559;  -11.398;49551.180
565.386;44713.242;  -12.788;48370.953
565.969;43719.164;   -9.077;48178.871
566.553;42628.082;   -6.207;49957.305
567.136;43519.125;   -8.568;50369.594
567.720;40293.828;  -11.868;49492.004
568.303;38352.117;   -8.268;50616.352
568.887;38321.168;   -8.698;50727.148
569.470;38641.984;   -6.808;51698.379
570.053;37277.195;  -13.188;52122.078
570.637;35455.570;  -12.037;52536.438
571.220;35522.602;   -8.577;51186.098
571.803;36357.496;   -8.498;51032.762
572.386;38216.055;  -10.498;49609.887
572.969;40635.039;   -9.388;48285.926
573.552;39239.453;   -8.338;47624.285
574.135;37810.348;   -8.518;45498.641
574.718;35616.988;  -13.628;41970.434
575.301;34612.680;  -10.893;41447.137
575.884;33608.367;   -8.158;40923.836
576.467;34803.012;  -10.328;45267.723
577.050;36610.328;  -13.058;48175.543
577.633;37915.262;   -9.458;47729.328
578.216;37251.969;   -8.928;47579.793
578.799;36410.316;   -9.358;47820.996
579.381;35243.793;  -11.388;48115.551
579.964;33207.027;  -11.718;47333.766
580.547;34798.137;   -8.588;46668.969
581.129;36089.785;   -8.859;44466.141
581.712;37242.609;  -10.729;44164.922
582.294;37865.258;  -11.118;46477.855
582.877;37461.098;   -5.218;48244.254
583.459;35353.941;   -8.679;47437.895
584.042;33334.348;  -10.709;46943.219
584.624;33536.863;  -11.669;46792.227
585.206;33297.285;   -8.218;46557.250
585.789;33267.352;  -10.569;45793.773
586.371;36115.445;  -11.859;43836.391
586.953;36918.125;  -10.719;42972.492
587.536;38280.598;   -7.198;42487.211
588.118;38625.488;   -8.720;42086.414
588.700;34547.863;  -10.439;43389.930
589.282;33433.328;   -9.198;43646.039
589.864;34650.871;   -9.199;43438.109
590.446;35863.352;  -11.319;43151.926
591.028;35749.418;  -11.159;42781.867
591.610;34504.602;  -11.779;42839.098
592.192;31652.551;   -7.668;42820.402
592.774;30030.211;  -11.949;40724.277
593.356;28813.012;  -12.129;39874.789
593.937;27893.787;  -10.669;39980.648
594.519;30067.988;   -6.509;42069.633
595.101;32062.008;  -10.849;42976.031
