
Integration time [ms]:   3.276
Averaging Nr. [scans]: 1000
Smoothing Nr. [pixels]: 0
Data measured with spectrometer [name]: 7414430SP
Wave   ;Sample   ;Dark     ;Reference
[nm]   ;[counts] ;[counts] ;[counts] 

288.544;  151.768;    7.793;  793.890
289.143;  155.492;    7.462;  681.602
289.742;  156.141;    8.602;  828.814
290.341;  143.866;    1.321;  789.841
290.940;  134.371;   -0.709;  730.702
291.538;  135.258;    0.881;  881.108
292.137;  134.104;    0.122;  792.581
292.736;  137.498;   -1.929;  975.101
293.335;  133.433;   -8.229;  735.086
293.934;  133.740;   -5.279;  781.677
294.532;  134.414;   -1.369; 1031.958
295.131;  121.744;   -7.641;  834.394
295.730;  121.530;   -8.420;  809.588
296.328;  119.797;   -5.611;  783.442
296.927;  118.468;   -5.781;  779.652
297.525;  118.967;   -6.361;  781.236
298.124;  110.479;  -11.382;  654.009
298.722;  114.771;   -7.641;  761.933
299.321;  112.875;   -6.811;  708.597
299.919;  110.100;   -6.991;  751.918
300.518;  106.317;  -10.362;  689.338
301.116;  107.122;   -9.581;  691.381
301.715;  108.814;   -4.891;  730.222
302.313;  107.620;   -8.801;  704.943
302.911;  103.655;   -8.522;  733.830
303.509;  106.326;   -6.171;  925.627
304.108;  105.384;   -7.311;  760.383
304.706;  104.566;   -8.321;  801.664
305.304;   98.579;  -10.222;  796.707
305.902;  104.632;   -6.021;  784.484
306.500;   99.715;   -4.971;  728.200
307.098;   98.902;   -7.061;  746.560
307.696;   96.266;   -8.801;  780.432
308.294;   96.512;   -6.411;  731.359
308.892;   99.384;   -2.901;  759.769
309.490;   95.317;   -5.041;  712.161
310.088;   92.196;   -5.002;  788.444
310.686;   97.120;   -2.041;  821.749
311.284;   92.994;   -2.351;  766.040
311.882;   90.675;   -4.422;  731.225
312.480;   87.276;   -4.192;  697.167
313.078;   89.283;   -1.172;  808.331
313.675;   89.837;   -2.601;  691.600
314.273;   85.608;   -1.312;  797.837
314.871;   84.025;   -3.942;  589.829
315.468;   81.609;   -2.802;  652.090
316.066;   86.349;   -0.701;  694.427
316.664;   77.707;   -4.362;  656.351
317.261;   81.506;   -2.872;  910.128
317.859;   77.520;   -2.022;  768.735
318.456;   77.915;   -0.531;  830.096
319.054;   73.382;   -3.912;  787.828
319.651;   72.012;   -4.752;  759.928
320.249;   71.112;   -2.602;  810.188
320.846;   69.346;   -0.821;  714.286
321.443;   66.273;   -4.642;  832.135
322.041;   63.393;   -5.002;  812.315
322.638;   61.334;   -3.982;  701.456
323.235;   63.467;   -3.411;  665.683
323.833;   59.542;   -7.361;  740.354
324.430;   54.573;   -8.611;  615.900
325.027;   54.447;   -4.061;  876.855
325.624;   55.888;   -4.031;  644.532
326.221;   53.021;   -7.481;  689.717
326.818;   51.736;   -5.281;  818.332
327.415;   54.979;   -7.460;  748.828
328.012;   54.427;   -5.510;  690.585
328.609;   52.404;   -7.880;  731.389
329.206;   51.213;   -8.331;  778.621
329.803;   50.729;   -5.121;  737.841
330.400;   54.138;   -4.510;  704.260
330.997;   55.688;   -6.441;  817.147
331.594;   54.124;   -8.831;  788.185
332.191;   58.252;   -7.621;  728.722
332.787;   62.137;   -4.591;  844.463
333.384;   61.433;   -7.412;  763.093
333.981;   59.923;   -8.293;  815.687
334.578;   62.328;   -7.052;  708.378
335.174;   65.302;   -3.102;  731.469
335.771;   64.977;   -5.943;  836.456
336.367;   61.460;   -7.393;  710.631
336.964;   65.280;   -4.063;  793.266
337.561;   63.781;   -3.813;  731.112
338.157;   59.760;   -4.654;  911.916
338.754;   57.707;   -7.934;  796.589
339.350;   56.354;   -4.414;  722.493
339.946;   57.649;   -4.664;  773.135
340.543;   49.847;   -6.375;  846.136
341.139;   45.043;   -9.815;  720.836
341.735;   41.396;   -4.526;  772.593
342.332;   41.142;   -4.895;  691.472
342.928;   41.247;   -4.295;  795.394
343.524;   35.213;   -5.476;  761.684
344.120;   30.812;   -5.856;  738.562
344.716;   34.522;   -2.155;  723.717
345.313;   32.253;   -6.275;  795.342
345.909;   26.577;   -8.815;  627.336
346.505;   28.140;   -5.305;  740.247
347.101;   29.542;   -2.674;  827.864
347.697;   28.865;   -4.344;  785.398
348.293;   23.544;   -9.975;  627.244
348.889;   24.683;   -5.774;  745.914
349.485;   24.024;   -5.004;  688.205
350.081;   24.717;   -4.704;  772.592
350.676;   19.417;   -6.635;  691.606
351.272;   23.526;   -4.504;  809.530
351.868;   23.385;   -3.914;  780.497
352.464;   21.363;   -9.044;  723.932
353.059;   16.845;   -8.314;  646.017
353.655;   20.305;   -7.024;  777.063
354.251;   21.689;   -5.343;  759.845
354.846;   15.895;   -8.604;  740.646
355.442;   13.579;   -6.945;  753.071
356.038;   15.171;   -7.564;  751.708
356.633;   16.439;   -5.814;  728.594
357.229;   13.820;   -7.364;  724.757
357.824;   11.948;   -8.024;  703.600
358.420;   10.067;   -9.384;  679.726
359.015;   11.469;   -5.104;  695.357
359.610;   12.391;   -6.854;  763.920
360.206;    6.010;  -10.185;  603.240
360.801;    8.583;   -7.054;  646.503
361.396;   12.048;   -5.034;  725.975
361.992;    7.081;   -8.284;  668.220
362.587;    4.210;   -8.625;  670.160
363.182;    5.838;   -7.674;  689.631
363.777;    6.950;   -5.164;  738.242
364.372;    6.374;   -8.604;  737.314
364.967;    2.767;   -9.055;  680.744
365.563;    7.272;   -6.114;  815.567
366.158;    4.842;   -5.814;  685.161
366.753;    4.491;   -7.854;  649.263
367.348;    3.802;   -7.804;  746.056
367.942;    3.013;   -7.954;  697.298
368.537;    1.877;   -4.984;  754.245
369.132;    2.248;   -8.564;  703.428
369.727;   -2.086;   -8.855;  638.079
370.322;   -0.625;   -6.245;  580.186
370.917;   -0.846;   -6.425;  710.646
371.511;    1.993;   -6.294;  861.834
372.106;   -1.661;   -7.685;  776.964
372.701;   -4.404;   -7.335;  585.988
373.296;    0.963;   -4.564;  863.135
373.890;   -3.730;  -10.235;  647.840
374.485;   -6.413;   -7.885;  691.199
375.079;   -2.700;   -7.324;  738.685
375.674;   -1.038;   -3.494;  812.970
376.268;   -5.377;   -8.525;  691.759
376.863;  -10.237;  -10.086;  580.327
377.457;   -4.796;   -7.025;  662.490
378.052;   -6.455;   -3.585;  764.884
378.646;   -7.907;   -7.595;  741.167
379.240;   -7.948;   -8.335;  721.176
379.835;   -7.319;   -5.785;  636.978
380.429;   -8.139;   -4.335;  562.557
381.023;   -8.144;   -6.805;  779.205
381.617;  -12.082;   -9.195;  680.106
382.212;   -8.471;   -6.905;  685.303
382.806;   -7.695;   -3.745;  760.690
383.400;  -10.734;   -7.745;  672.281
383.994;  -12.961;   -9.765;  664.870
384.588;   -9.410;   -6.564;  697.701
385.182;   -7.400;   -5.344;  726.624
385.776;   -8.342;   -8.514;  706.875
386.370;  -11.727;   -9.555;  681.968
386.964;  -11.132;   -8.715;  684.155
387.558;   -8.347;   -6.174;  598.360
388.152;  -12.270;   -8.725;  681.959
388.745;  -11.160;   -7.965;  814.707
389.339;   -9.236;   -5.924;  747.642
389.933;   -8.268;   -5.524;  695.370
390.527;   -9.536;   -7.114;  859.029
391.120;  -15.969;  -10.725;  595.318
391.714;  -13.102;   -8.035;  711.633
392.308;   -9.877;   -3.574;  780.253
392.901;  -12.992;   -7.245;  642.460
393.495;  -15.208;   -9.285;  595.414
394.089;  -12.847;   -5.895;  760.452
394.682;  -13.130;   -4.295;  697.188
395.275;  -13.745;   -9.875;  719.927
395.869;  -15.463;   -8.485;  667.314
396.462;  -14.043;   -7.455;  616.609
397.056;  -10.197;   -5.424;  776.621
397.649;  -14.788;   -6.605;  731.575
398.242;  -12.732;   -8.224;  712.645
398.836;  -12.080;   -7.474;  766.408
399.429;  -12.388;   -7.094;  631.041
400.022;  -16.413;   -9.475;  665.902
400.615;  -13.574;   -7.145;  805.609
401.208;  -11.838;   -7.174;  691.451
401.802;  -13.865;   -5.515;  699.329
402.395;  -14.550;   -9.875;  683.502
402.988;  -15.850;   -8.845;  696.627
403.581;  -13.291;   -8.874;  646.878
404.174;  -10.563;   -5.324;  686.568
404.767;  -13.144;   -9.575;  638.583
405.360;  -15.852;  -10.965;  621.445
405.953;  -10.616;   -8.764;  759.034
406.545;  -10.226;   -7.514;  725.342
407.138;  -14.516;  -10.025;  618.350
407.731;  -13.295;  -10.034;  613.303
408.324;   -9.270;   -9.374;  660.554
408.917;   -9.710;   -6.534;  681.864
409.509;  -11.771;   -8.004;  740.396
410.102;  -14.408;   -9.875;  643.948
410.695;   -8.324;   -8.604;  665.758
411.287;   -9.769;   -6.794;  599.821
411.880;  -10.284;   -9.334;  585.421
412.472;  -12.950;  -10.254;  613.092
413.065;  -11.039;   -6.714;  629.408
413.657;   -8.040;   -7.234;  576.678
414.250;   -8.004;  -10.544;  646.681
414.842;  -10.545;   -9.744;  676.353
415.434;   -7.679;   -6.994;  570.463
416.027;   -4.040;   -5.893;  652.196
416.619;   -5.405;   -7.264;  713.400
417.211;   -6.405;  -10.374;  599.352
417.804;   -2.828;   -7.993;  628.499
418.396;   -6.655;   -7.234;  607.643
418.988;   -4.502;   -9.443;  659.238
419.580;   -8.027;  -10.724;  568.276
420.172;   -5.663;  -10.323;  536.196
420.764;   -1.632;   -8.793;  672.482
421.356;   -3.343;  -11.143;  636.898
421.948;   -4.092;   -8.293;  677.661
422.540;    0.969;   -7.893;  680.027
423.132;    0.572;   -7.082;  600.641
423.724;   -2.999;   -8.653;  561.267
424.316;   -1.127;  -10.213;  621.345
424.908;    2.189;   -9.762;  591.517
425.500;    3.346;   -5.572;  647.978
426.092;    3.045;   -8.422;  648.268
426.683;    2.604;   -9.283;  684.836
427.275;    5.222;   -7.852;  641.471
427.867;    6.933;   -5.272;  668.948
428.458;    7.230;   -7.682;  732.344
429.050;    4.918;  -10.612;  680.749
429.642;    7.608;   -9.882;  743.124
430.233;    8.191;   -6.962;  569.356
430.825;    9.276;   -6.842;  724.809
431.416;    6.762;   -9.672;  698.241
432.008;   10.435;   -6.552;  651.723
432.599;   11.554;   -6.891;  656.073
433.190;    8.308;  -10.912;  637.670
433.782;    8.147;  -11.172;  590.395
434.373;   14.472;   -6.061;  884.765
434.964;   13.434;   -8.251;  602.920
435.556;   10.796;   -9.722;  634.537
436.147;   13.663;   -9.082;  758.490
436.738;   12.888;   -8.041;  701.099
437.329;   18.767;   -7.341;  721.723
437.920;   12.126;   -8.162;  666.688
438.511;   11.071;  -11.802;  564.526
439.103;   18.278;  -10.191;  623.998
439.694;   20.174;   -7.601;  681.583
440.285;   21.287;   -8.541;  764.432
440.876;   18.584;   -9.751;  845.738
441.466;   18.605;   -9.401;  575.162
442.057;   24.687;   -7.760;  665.814
442.648;   22.519;   -9.971;  746.255
443.239;   21.053;  -11.001;  620.477
443.830;   25.118;   -7.990;  704.958
444.421;   27.725;   -7.910;  655.474
445.011;   24.082;   -8.131;  693.619
445.602;   23.447;   -7.111;  743.126
446.193;   24.217;  -10.920;  488.117
446.783;   30.134;   -6.500;  640.397
447.374;   24.820;   -8.671;  692.759
447.964;   26.001;  -10.781;  713.770
448.555;   34.240;   -9.650;  822.742
449.145;   30.704;   -8.660;  662.853
449.736;   31.114;   -8.990;  803.179
450.326;   30.737;   -9.500;  713.626
450.917;   35.802;   -8.680;  675.324
451.507;   35.287;   -7.520;  600.661
452.097;   36.149;   -8.590;  746.267
452.688;   36.635;  -11.340;  742.160
453.278;   36.559;  -10.100;  566.840
453.868;   41.317;   -6.019;  793.550
454.458;   38.701;   -9.440;  651.141
455.048;   39.173;  -10.560;  711.783
455.639;   40.912;  -11.799;  567.096
456.229;   44.313;   -6.899;  710.694
456.819;   46.332;   -7.389;  751.158
457.409;   46.799;  -11.119;  773.993
457.999;   48.359;   -9.289;  737.505
458.589;   49.199;   -6.139;  686.606
459.179;   48.269;   -8.729;  717.658
459.769;   46.615;   -9.789;  627.099
460.358;   50.943;  -10.259;  797.262
460.948;   51.329;   -7.299;  689.503
461.538;   52.835;  -10.289;  660.677
462.128;   51.260;  -11.269;  664.934
462.717;   56.784;   -9.368;  710.326
463.307;   59.938;   -7.908;  705.846
463.897;   56.572;   -9.599;  656.942
464.486;   55.533;   -9.769;  837.128
465.076;   59.690;   -8.048;  733.776
465.666;   63.774;   -9.358;  652.900
466.255;   61.520;   -7.919;  785.651
466.845;   60.783;  -11.689;  666.749
467.434;   63.616;   -7.818;  725.873
468.023;   64.220;   -7.678;  658.357
468.613;   62.216;  -10.939;  713.946
469.202;   66.740;  -10.118;  646.507
469.791;   70.218;   -9.108;  737.811
470.381;   72.544;   -6.058;  742.813
470.970;   72.714;  -10.428;  711.099
471.559;   71.257;  -10.268;  733.291
472.148;   74.998;   -8.448;  675.737
472.738;   76.623;   -6.917;  765.466
473.327;   76.870;  -11.978;  637.529
473.916;   75.797;  -11.888;  737.446
474.505;   80.828;   -9.437;  751.703
475.094;   83.638;   -6.747;  806.570
475.683;   82.605;   -9.367;  797.699
476.272;   83.672;  -12.637;  730.632
476.861;   86.607;  -10.027;  706.754
477.449;   93.985;   -8.716;  728.487
478.038;   88.354;   -9.577;  692.513
478.627;   89.372;   -9.718;  714.852
479.216;   95.670;   -8.947;  769.441
479.805;   98.458;   -6.256;  783.375
480.393;   98.936;   -7.937; 1008.945
480.982;   97.289;   -7.717;  874.501
481.571;  104.083;   -9.266;  858.333
482.159;  104.987;   -7.636;  705.386
482.748;  104.750;   -9.667;  821.385
483.336;  110.026;  -10.376;  858.209
483.925;  109.917;   -7.147;  774.373
484.513;  117.195;   -7.996;  758.962
485.102;  114.820;  -10.027;  810.965
485.690;  123.467;  -10.446; 1011.050
486.278;  124.521;   -8.446;  979.329
486.867;  126.640;   -6.356;  809.662
487.455;  128.802;   -9.136;  898.229
488.043;  131.312;  -10.646;  748.361
488.631;  139.403;   -7.456; 1005.079
489.220;  143.886;   -6.636;  908.626
489.808;  145.830;  -11.036;  741.415
490.396;  155.350;  -10.246;  914.645
490.984;  164.267;   -8.556;  830.161
491.572;  179.620;   -5.886;  940.315
492.160;  190.119;   -9.486;  919.081
492.748;  205.802;  -10.976;  884.341
493.336;  236.715;   -8.776; 1019.693
493.924;  282.077;   -5.465;  958.077
494.512;  338.304;   -9.986; 1066.638
495.100;  397.764;  -10.636; 1103.280
495.687;  491.806;  -10.885; 1206.373
496.275;  591.243;   -8.126; 1150.796
496.863;  690.149;  -10.586; 1281.171
497.451;  840.380;  -11.926; 1386.805
498.038;  968.554;  -10.885; 1556.729
498.626; 1143.852;   -6.315; 1741.407
499.214; 1425.325;   -7.326; 2016.609
499.801; 1746.676;  -11.906; 2220.633
500.389; 2132.675;  -10.466; 2312.494
500.976; 2455.114;   -5.236; 2744.849
501.564; 3017.881;   -8.936; 3148.565
502.151; 3786.662;  -13.176; 3515.999
502.738; 4367.550;  -10.646; 3971.274
503.326; 4824.123;   -9.525; 4403.796
503.913; 5218.145;  -10.856; 5161.749
504.500; 5800.229;  -11.586; 5986.420
505.088; 6477.682;  -10.336; 6381.201
505.675; 7407.313;   -6.355; 6925.547
506.262; 8033.301;   -9.046; 7619.060
506.849; 8390.643;  -10.416; 8733.969
507.436; 9137.205;  -10.305; 9790.121
508.023; 9669.519;   -5.496; 9985.472
508.610; 9617.483;   -7.856;10434.618
509.197;10354.671;  -10.097;11198.435
509.784;11895.468;  -10.886;12391.194
510.371;13470.988;   -9.315;13603.713
510.958;14710.897;   -9.936;14426.586
511.545;15236.999;   -9.326;15243.775
512.132;15232.411;  -10.075;15945.876
512.719;15735.710;   -7.796;16340.369
513.305;16893.965;  -10.606;18011.766
513.892;18707.408;  -11.486;19754.971
514.479;20173.959;   -9.126;20967.805
515.066;20920.029;   -6.026;22299.793
515.652;20495.871;   -8.466;22908.660
516.239;20945.975;  -10.886;23798.875
516.825;21985.635;  -11.496;25567.275
517.412;23562.455;   -5.796;28154.959
517.998;24827.654;  -10.506;28344.111
518.585;25616.990;  -10.076;27134.219
519.171;24957.949;   -8.315;27268.576
519.758;26132.891;   -8.596;28964.129
520.344;28234.971;   -8.466;30664.494
520.930;27393.914;  -11.006;32550.605
521.516;26364.020;  -10.495;35422.895
522.103;28225.873;   -5.526;38280.004
522.689;29858.541;   -8.746;37835.117
523.275;30703.400;  -11.376;37288.613
523.861;32545.506;  -11.156;37281.395
524.447;32546.107;   -8.135;37846.949
525.033;32601.727;   -7.896;38321.949
525.619;33116.941;  -12.476;38579.285
526.205;33359.465;   -9.516;40622.875
526.791;32992.852;   -6.926;42258.836
527.377;32249.027;   -8.346;42966.902
527.963;33836.813;   -8.717;42018.949
528.549;35124.719;  -11.016;42476.828
529.135;33676.098;   -8.536;41854.852
529.721;34180.418;   -9.666;41237.711
530.306;33115.395;  -10.066;41259.445
530.892;32680.680;  -11.356;41506.047
531.478;34655.426;   -6.596;43559.613
532.063;37040.660;   -8.836;47695.563
532.649;35919.250;  -10.047;50808.324
533.235;36598.883;   -9.746;51787.500
533.820;38139.715;   -6.566;52145.035
534.406;39281.840;  -10.817;51133.488
534.991;40924.070;   -9.416;49996.805
535.576;38931.293;   -9.036;48882.852
536.162;36394.629;   -6.156;46942.285
536.747;37087.414;  -11.607;45711.746
537.333;38936.621;  -11.787;48510.180
537.918;40004.313;  -12.437;50439.891
538.503;40291.605;   -7.196;50863.711
539.088;41148.234;  -10.556;50906.922
539.673;41759.891;   -8.767;52621.965
540.259;39077.961;  -10.026;52368.094
540.844;39283.020;   -7.416;50879.109
541.429;39000.227;   -9.467;52077.777
542.014;37959.398;   -9.527;52716.695
542.599;40901.160;   -9.946;52363.281
543.184;41875.809;   -7.927;53187.137
543.769;42602.875;   -9.297;54697.605
544.354;42930.340;  -10.127;53913.914
544.938;40559.137;   -9.267;49680.164
545.523;39322.617;   -6.506;47386.277
546.108;42221.281;   -9.787;49151.949
546.693;42358.480;  -11.587;51384.637
547.278;41543.754;  -10.986;51853.254
547.862;42227.660;   -8.206;51173.750
548.447;40636.520;  -10.067;51691.395
549.031;40241.043;   -9.637;52456.703
549.616;40294.133;   -9.926;52714.516
550.201;39908.367;   -6.347;52414.598
550.785;40648.422;   -7.917;52355.059
551.370;41461.484;  -10.867;54589.453
551.954;42978.316;   -9.047;58267.348
552.538;41919.328;   -7.827;59062.176
553.123;40426.781;  -10.287;58115.285
553.707;39206.930;  -12.178;56556.285
554.291;37814.375;   -8.717;56201.668
554.876;40040.148;   -7.457;55335.762
555.460;42229.570;  -10.387;54155.703
556.044;43503.352;   -9.618;53721.484
556.628;43552.773;  -11.567;53731.016
557.212;44108.750;   -8.097;54312.531
557.796;45894.746;  -11.077;53797.773
558.380;44699.875;  -11.108;56145.984
558.964;43148.109;   -9.057;57277.930
559.548;40869.199;   -6.977;56459.641
560.132;38488.445;  -11.457;54434.543
560.716;39669.746;  -11.378;54800.617
561.300;40443.016;   -9.577;57606.945
561.884;38894.859;   -7.127;58972.445
562.467;39159.113;   -7.118;57327.570
563.051;37574.176;  -13.358;54962.434
563.635;35168.496;  -10.178;52594.473
564.219;36973.707;   -7.837;50610.410
564.802;40850.625;  -11.398;49551.180
565.386;41622.445;  -12.788;48370.953
565.969;42110.336;   -9.077;48178.871
566.553;41476.121;   -6.207;49957.305
567.136;40373.785;   -8.568;50369.594
567.720;41215.266;  -11.868;49492.004
568.303;42160.465;   -8.268;50616.352
568.887;41232.207;   -8.698;50727.148
569.470;39195.504;   -6.808;51698.379
570.053;37000.281;  -13.188;52122.078
570.637;34331.438;  -12.037;52536.438
571.220;34723.266;   -8.577;51186.098
571.803;34832.973;   -8.498;51032.762
572.386;36435.086;  -10.498;49609.887
572.969;37216.699;   -9.388;48285.926
573.552;37512.195;   -8.338;47624.285
574.135;36446.094;   -8.518;45498.641
574.718;32454.781;  -13.628;41970.434
575.301;33123.340;  -10.893;41447.137
575.884;33791.898;   -8.158;40923.836
576.467;39243.414;  -10.328;45267.723
577.050;40206.176;  -13.058;48175.543
577.633;39265.176;   -9.458;47729.328
578.216;36226.066;   -8.928;47579.793
578.799;34030.199;   -9.358;47820.996
579.381;34851.777;  -11.388;48115.551
579.964;34774.969;  -11.718;47333.766
580.547;33419.723;   -8.588;46668.969
581.129;33695.656;   -8.859;44466.141
581.712;35638.805;  -10.729;44164.922
582.294;35770.723;  -11.118;46477.855
582.877;35830.020;   -5.218;48244.254
583.459;35737.598;   -8.679;47437.895
584.042;37110.832;  -10.709;46943.219
584.624;35421.293;  -11.669;46792.227
585.206;34690.773;   -8.218;46557.250
585.789;35632.480;  -10.569;45793.773
586.371;35933.121;  -11.859;43836.391
586.953;36438.020;  -10.719;42972.492
587.536;38359.344;   -7.198;42487.211
588.118;37680.305;   -8.720;42086.414
588.700;36537.082;  -10.439;43389.930
589.282;34287.043;   -9.198;43646.039
589.864;31814.465;   -9.199;43438.109
590.446;31058.111;  -11.319;43151.926
591.028;30991.471;  -11.159;42781.867
591.610;30601.820;  -11.779;42839.098
592.192;30695.803;   -7.668;42820.402
592.774;28606.422;  -11.949;40724.277
593.356;25953.957;  -12.129;39874.789
593.937;26828.660;  -10.669;39980.648
594.519;30355.797;   -6.509;42069.633
595.101;31437.373;  -10.849;42976.031
