
Integration time [ms]:   3.276
Averaging Nr. [scans]: 1000
Smoothing Nr. [pixels]: 0
Data measured with spectrometer [name]: 7414430SP
Wave   ;Sample   ;Dark     ;Reference
[nm]   ;[counts] ;[counts] ;[counts] 

288.544;  157.287;    7.793;  793.890
289.143;  160.149;    7.462;  681.602
289.742;  161.579;    8.602;  828.814
290.341;  149.276;    1.321;  789.841
290.940;  139.157;   -0.709;  730.702
291.538;  139.419;    0.881;  881.108
292.137;  138.605;    0.122;  792.581
292.736;  141.904;   -1.929;  975.101
293.335;  138.277;   -8.229;  735.086
293.934;  138.519;   -5.279;  781.677
294.532;  137.513;   -1.369; 1031.958
295.131;  124.568;   -7.641;  834.394
295.730;  124.691;   -8.420;  809.588
296.328;  123.180;   -5.611;  783.442
296.927;  122.399;   -5.781;  779.652
297.525;  123.640;   -6.361;  781.236
298.124;  113.805;  -11.382;  654.009
298.722;  117.610;   -7.641;  761.933
299.321;  115.351;   -6.811;  708.597
299.919;  113.418;   -6.991;  751.918
300.518;  109.956;  -10.362;  689.338
301.116;  111.533;   -9.581;  691.381
301.715;  111.288;   -4.891;  730.222
302.313;  111.099;   -8.801;  704.943
302.911;  106.468;   -8.522;  733.830
303.509;  111.644;   -6.171;  925.627
304.108;  108.241;   -7.311;  760.383
304.706;  107.282;   -8.321;  801.664
305.304;  102.232;  -10.222;  796.707
305.902;  107.790;   -6.021;  784.484
306.500;  103.011;   -4.971;  728.200
307.098;  101.131;   -7.061;  746.560
307.696;   98.815;   -8.801;  780.432
308.294;  100.122;   -6.411;  731.359
308.892;  101.250;   -2.901;  759.769
309.490;   97.760;   -5.041;  712.161
310.088;   95.086;   -5.002;  788.444
310.686;  100.038;   -2.041;  821.749
311.284;   95.336;   -2.351;  766.040
311.882;   93.327;   -4.422;  731.225
312.480;   90.318;   -4.192;  697.167
313.078;   91.837;   -1.172;  808.331
313.675;   91.331;   -2.601;  691.600
314.273;   87.144;   -1.312;  797.837
314.871;   86.700;   -3.942;  589.829
315.468;   84.314;   -2.802;  652.090
316.066;   87.911;   -0.701;  694.427
316.664;   80.386;   -4.362;  656.351
317.261;   83.663;   -2.872;  910.128
317.859;   79.813;   -2.022;  768.735
318.456;   79.954;   -0.531;  830.096
319.054;   75.793;   -3.912;  787.828
319.651;   74.593;   -4.752;  759.928
320.249;   74.055;   -2.602;  810.188
320.846;   70.863;   -0.821;  714.286
321.443;   68.961;   -4.642;  832.135
322.041;   65.201;   -5.002;  812.315
322.638;   63.393;   -3.982;  701.456
323.235;   63.798;   -3.411;  665.683
323.833;   61.100;   -7.361;  740.354
324.430;   56.532;   -8.611;  615.900
325.027;   56.003;   -4.061;  876.855
325.624;   56.945;   -4.031;  644.532
326.221;   54.193;   -7.481;  689.717
326.818;   53.489;   -5.281;  818.332
327.415;   56.375;   -7.460;  748.828
328.012;   55.561;   -5.510;  690.585
328.609;   53.731;   -7.880;  731.389
329.206;   51.568;   -8.331;  778.621
329.803;   51.164;   -5.121;  737.841
330.400;   54.804;   -4.510;  704.260
330.997;   56.876;   -6.441;  817.147
331.594;   55.251;   -8.831;  788.185
332.191;   59.453;   -7.621;  728.722
332.787;   62.823;   -4.591;  844.463
333.384;   62.933;   -7.412;  763.093
333.981;   62.617;   -8.293;  815.687
334.578;   64.722;   -7.052;  708.378
335.174;   66.351;   -3.102;  731.469
335.771;   67.254;   -5.943;  836.456
336.367;   64.019;   -7.393;  710.631
336.964;   67.129;   -4.063;  793.266
337.561;   66.393;   -3.813;  731.112
338.157;   61.285;   -4.654;  911.916
338.754;   60.372;   -7.934;  796.589
339.350;   57.493;   -4.414;  722.493
339.946;   58.440;   -4.664;  773.135
340.543;   51.846;   -6.375;  846.136
341.139;   45.929;   -9.815;  720.836
341.735;   42.641;   -4.526;  772.593
342.332;   40.969;   -4.895;  691.472
342.928;   42.237;   -4.295;  795.394
343.524;   35.339;   -5.476;  761.684
344.120;   30.905;   -5.856;  738.562
344.716;   35.106;   -2.155;  723.717
345.313;   31.539;   -6.275;  795.342
345.909;   26.459;   -8.815;  627.336
346.505;   28.679;   -5.305;  740.247
347.101;   29.438;   -2.674;  827.864
347.697;   29.262;   -4.344;  785.398
348.293;   24.293;   -9.975;  627.244
348.889;   25.184;   -5.774;  745.914
349.485;   23.488;   -5.004;  688.205
350.081;   24.961;   -4.704;  772.592
350.676;   19.419;   -6.635;  691.606
351.272;   23.899;   -4.504;  809.530
351.868;   22.679;   -3.914;  780.497
352.464;   21.268;   -9.044;  723.932
353.059;   17.318;   -8.314;  646.017
353.655;   21.021;   -7.024;  777.063
354.251;   21.614;   -5.343;  759.845
354.846;   15.655;   -8.604;  740.646
355.442;   13.888;   -6.945;  753.071
356.038;   15.051;   -7.564;  751.708
356.633;   15.489;   -5.814;  728.594
357.229;   13.958;   -7.364;  724.757
357.824;   12.025;   -8.024;  703.600
358.420;   10.757;   -9.384;  679.726
359.015;   11.676;   -5.104;  695.357
359.610;   12.536;   -6.854;  763.920
360.206;    6.638;  -10.185;  603.240
360.801;    9.090;   -7.054;  646.503
361.396;   11.034;   -5.034;  725.975
361.992;    6.378;   -8.284;  668.220
362.587;    3.897;   -8.625;  670.160
363.182;    5.458;   -7.674;  689.631
363.777;    6.743;   -5.164;  738.242
364.372;    6.218;   -8.604;  737.314
364.967;    2.365;   -9.055;  680.744
365.563;    6.503;   -6.114;  815.567
366.158;    3.628;   -5.814;  685.161
366.753;    4.351;   -7.854;  649.263
367.348;    2.405;   -7.804;  746.056
367.942;    1.810;   -7.954;  697.298
368.537;    1.106;   -4.984;  754.245
369.132;    1.776;   -8.564;  703.428
369.727;   -2.476;   -8.855;  638.079
370.322;   -1.434;   -6.245;  580.186
370.917;   -1.183;   -6.425;  710.646
371.511;    1.055;   -6.294;  861.834
372.106;   -2.663;   -7.685;  776.964
372.701;   -5.749;   -7.335;  585.988
373.296;   -0.199;   -4.564;  863.135
373.890;   -4.677;  -10.235;  647.840
374.485;   -6.816;   -7.885;  691.199
375.079;   -2.960;   -7.324;  738.685
375.674;   -1.907;   -3.494;  812.970
376.268;   -5.930;   -8.525;  691.759
376.863;  -11.572;  -10.086;  580.327
377.457;   -5.295;   -7.025;  662.490
378.052;   -7.909;   -3.585;  764.884
378.646;   -8.494;   -7.595;  741.167
379.240;   -9.071;   -8.335;  721.176
379.835;   -8.351;   -5.785;  636.978
380.429;  -10.558;   -4.335;  562.557
381.023;   -9.620;   -6.805;  779.205
381.617;  -12.278;   -9.195;  680.106
382.212;   -8.843;   -6.905;  685.303
382.806;   -8.500;   -3.745;  760.690
383.400;  -12.884;   -7.745;  672.281
383.994;  -12.883;   -9.765;  664.870
384.588;   -9.349;   -6.564;  697.701
385.182;   -8.817;   -5.344;  726.624
385.776;   -9.817;   -8.514;  706.875
386.370;  -12.947;   -9.555;  681.968
386.964;  -11.883;   -8.715;  684.155
387.558;   -9.966;   -6.174;  598.360
388.152;  -13.269;   -8.725;  681.959
388.745;  -11.908;   -7.965;  814.707
389.339;   -9.828;   -5.924;  747.642
389.933;   -9.635;   -5.524;  695.370
390.527;  -10.595;   -7.114;  859.029
391.120;  -16.886;  -10.725;  595.318
391.714;  -13.631;   -8.035;  711.633
392.308;  -11.641;   -3.574;  780.253
392.901;  -14.965;   -7.245;  642.460
393.495;  -15.235;   -9.285;  595.414
394.089;  -13.725;   -5.895;  760.452
394.682;  -14.403;   -4.295;  697.188
395.275;  -15.429;   -9.875;  719.927
395.869;  -16.650;   -8.485;  667.314
396.462;  -15.226;   -7.455;  616.609
397.056;  -11.402;   -5.424;  776.621
397.649;  -15.194;   -6.605;  731.575
398.242;  -13.480;   -8.224;  712.645
398.836;  -12.958;   -7.474;  766.408
399.429;  -13.912;   -7.094;  631.041
400.022;  -16.838;   -9.475;  665.902
400.615;  -14.726;   -7.145;  805.609
401.208;  -12.385;   -7.174;  691.451
401.802;  -15.792;   -5.515;  699.329
402.395;  -15.924;   -9.875;  683.502
402.988;  -17.263;   -8.845;  696.627
403.581;  -14.984;   -8.874;  646.878
404.174;  -12.117;   -5.324;  686.568
404.767;  -15.354;   -9.575;  638.583
405.360;  -17.366;  -10.965;  621.445
405.953;  -11.617;   -8.764;  759.034
406.545;  -11.078;   -7.514;  725.342
407.138;  -15.397;  -10.025;  618.350
407.731;  -13.417;  -10.034;  613.303
408.324;  -10.641;   -9.374;  660.554
408.917;  -10.810;   -6.534;  681.864
409.509;  -12.919;   -8.004;  740.396
410.102;  -15.271;   -9.875;  643.948
410.695;   -9.395;   -8.604;  665.758
411.287;  -11.023;   -6.794;  599.821
411.880;  -10.909;   -9.334;  585.421
412.472;  -14.618;  -10.254;  613.092
413.065;  -12.259;   -6.714;  629.408
413.657;   -9.787;   -7.234;  576.678
414.250;   -9.521;  -10.544;  646.681
414.842;  -11.153;   -9.744;  676.353
415.434;   -9.257;   -6.994;  570.463
416.027;   -5.588;   -5.893;  652.196
416.619;   -7.948;   -7.264;  713.400
417.211;   -8.536;  -10.374;  599.352
417.804;   -4.358;   -7.993;  628.499
418.396;   -8.003;   -7.234;  607.643
418.988;   -6.320;   -9.443;  659.238
419.580;  -10.111;  -10.724;  568.276
420.172;   -7.553;  -10.323;  536.196
420.764;   -2.923;   -8.793;  672.482
421.356;   -4.251;  -11.143;  636.898
421.948;   -5.804;   -8.293;  677.661
422.540;    0.804;   -7.893;  680.027
423.132;   -0.367;   -7.082;  600.641
423.724;   -4.378;   -8.653;  561.267
424.316;   -2.537;  -10.213;  621.345
424.908;    1.624;   -9.762;  591.517
425.500;    2.106;   -5.572;  647.978
426.092;    2.205;   -8.422;  648.268
426.683;    2.431;   -9.283;  684.836
427.275;    4.132;   -7.852;  641.471
427.867;    5.922;   -5.272;  668.948
428.458;    6.300;   -7.682;  732.344
429.050;    4.517;  -10.612;  680.749
429.642;    6.994;   -9.882;  743.124
430.233;    7.279;   -6.962;  569.356
430.825;    8.167;   -6.842;  724.809
431.416;    5.539;   -9.672;  698.241
432.008;    9.488;   -6.552;  651.723
432.599;   10.133;   -6.891;  656.073
433.190;    8.084;  -10.912;  637.670
433.782;    6.970;  -11.172;  590.395
434.373;   14.131;   -6.061;  884.765
434.964;   12.127;   -8.251;  602.920
435.556;   10.633;   -9.722;  634.537
436.147;   13.401;   -9.082;  758.490
436.738;   12.721;   -8.041;  701.099
437.329;   18.480;   -7.341;  721.723
437.920;   11.205;   -8.162;  666.688
438.511;   10.755;  -11.802;  564.526
439.103;   17.417;  -10.191;  623.998
439.694;   19.294;   -7.601;  681.583
440.285;   20.383;   -8.541;  764.432
440.876;   18.474;   -9.751;  845.738
441.466;   17.877;   -9.401;  575.162
442.057;   22.894;   -7.760;  665.814
442.648;   22.094;   -9.971;  746.255
443.239;   20.310;  -11.001;  620.477
443.830;   24.927;   -7.990;  704.958
444.421;   26.733;   -7.910;  655.474
445.011;   23.529;   -8.131;  693.619
445.602;   23.219;   -7.111;  743.126
446.193;   24.771;  -10.920;  488.117
446.783;   29.311;   -6.500;  640.397
447.374;   24.651;   -8.671;  692.759
447.964;   25.410;  -10.781;  713.770
448.555;   33.534;   -9.650;  822.742
449.145;   30.556;   -8.660;  662.853
449.736;   31.409;   -8.990;  803.179
450.326;   30.863;   -9.500;  713.626
450.917;   36.108;   -8.680;  675.324
451.507;   34.820;   -7.520;  600.661
452.097;   35.358;   -8.590;  746.267
452.688;   36.551;  -11.340;  742.160
453.278;   36.273;  -10.100;  566.840
453.868;   40.590;   -6.019;  793.550
454.458;   38.680;   -9.440;  651.141
455.048;   39.568;  -10.560;  711.783
455.639;   40.771;  -11.799;  567.096
456.229;   43.555;   -6.899;  710.694
456.819;   46.170;   -7.389;  751.158
457.409;   45.901;  -11.119;  773.993
457.999;   48.487;   -9.289;  737.505
458.589;   48.502;   -6.139;  686.606
459.179;   48.466;   -8.729;  717.658
459.769;   46.485;   -9.789;  627.099
460.358;   51.511;  -10.259;  797.262
460.948;   51.425;   -7.299;  689.503
461.538;   52.986;  -10.289;  660.677
462.128;   50.825;  -11.269;  664.934
462.717;   57.477;   -9.368;  710.326
463.307;   60.225;   -7.908;  705.846
463.897;   56.222;   -9.599;  656.942
464.486;   54.951;   -9.769;  837.128
465.076;   59.909;   -8.048;  733.776
465.666;   63.285;   -9.358;  652.900
466.255;   60.775;   -7.919;  785.651
466.845;   60.203;  -11.689;  666.749
467.434;   63.150;   -7.818;  725.873
468.023;   63.930;   -7.678;  658.357
468.613;   62.149;  -10.939;  713.946
469.202;   66.584;  -10.118;  646.507
469.791;   71.407;   -9.108;  737.811
470.381;   71.398;   -6.058;  742.813
470.970;   72.104;  -10.428;  711.099
471.559;   71.704;  -10.268;  733.291
472.148;   75.429;   -8.448;  675.737
472.738;   76.978;   -6.917;  765.466
473.327;   76.369;  -11.978;  637.529
473.916;   75.947;  -11.888;  737.446
474.505;   80.496;   -9.437;  751.703
475.094;   83.452;   -6.747;  806.570
475.683;   82.485;   -9.367;  797.699
476.272;   83.786;  -12.637;  730.632
476.861;   87.041;  -10.027;  706.754
477.449;   92.205;   -8.716;  728.487
478.038;   87.897;   -9.577;  692.513
478.627;   88.917;   -9.718;  714.852
479.216;   94.659;   -8.947;  769.441
479.805;   97.931;   -6.256;  783.375
480.393;   97.840;   -7.937; 1008.945
480.982;   97.130;   -7.717;  874.501
481.571;  103.672;   -9.266;  858.333
482.159;  102.221;   -7.636;  705.386
482.748;  103.553;   -9.667;  821.385
483.336;  108.581;  -10.376;  858.209
483.925;  108.950;   -7.147;  774.373
484.513;  115.983;   -7.996;  758.962
485.102;  112.617;  -10.027;  810.965
485.690;  121.314;  -10.446; 1011.050
486.278;  122.571;   -8.446;  979.329
486.867;  123.710;   -6.356;  809.662
487.455;  125.099;   -9.136;  898.229
488.043;  127.586;  -10.646;  748.361
488.631;  136.345;   -7.456; 1005.079
489.220;  139.944;   -6.636;  908.626
489.808;  139.940;  -11.036;  741.415
490.396;  148.165;  -10.246;  914.645
490.984;  154.099;   -8.556;  830.161
491.572;  165.697;   -5.886;  940.315
492.160;  172.518;   -9.486;  919.081
492.748;  183.392;  -10.976;  884.341
493.336;  204.806;   -8.776; 1019.693
493.924;  235.253;   -5.465;  958.077
494.512;  272.005;   -9.986; 1066.638
495.100;  313.734;  -10.636; 1103.280
495.687;  379.177;  -10.885; 1206.373
496.275;  461.803;   -8.126; 1150.796
496.863;  541.552;  -10.586; 1281.171
497.451;  649.910;  -11.926; 1386.805
498.038;  755.790;  -10.885; 1556.729
498.626;  878.584;   -6.315; 1741.407
499.214; 1083.853;   -7.326; 2016.609
499.801; 1319.463;  -11.906; 2220.633
500.389; 1627.793;  -10.466; 2312.494
500.976; 1909.436;   -5.236; 2744.849
501.564; 2376.805;   -8.936; 3148.565
502.151; 3014.392;  -13.176; 3515.999
502.738; 3402.546;  -10.646; 3971.274
503.326; 3786.554;   -9.525; 4403.796
503.913; 4225.642;  -10.856; 5161.749
504.500; 4701.884;  -11.586; 5986.420
505.088; 5255.664;  -10.336; 6381.201
505.675; 6110.087;   -6.355; 6925.547
506.262; 6663.504;   -9.046; 7619.060
506.849; 7043.860;  -10.416; 8733.969
507.436; 7487.857;  -10.305; 9790.121
508.023; 7853.399;   -5.496; 9985.472
508.610; 7952.343;   -7.856;10434.618
509.197; 8909.402;  -10.097;11198.435
509.784;10222.271;  -10.886;12391.194
510.371;11638.217;   -9.315;13603.713
510.958;12701.606;   -9.936;14426.586
511.545;13199.233;   -9.326;15243.775
512.132;13419.688;  -10.075;15945.876
512.719;13936.163;   -7.796;16340.369
513.305;15186.957;  -10.606;18011.766
513.892;16716.133;  -11.486;19754.971
514.479;17964.420;   -9.126;20967.805
515.066;19394.109;   -6.026;22299.793
515.652;19551.396;   -8.466;22908.660
516.239;19993.832;  -10.886;23798.875
516.825;21353.486;  -11.496;25567.275
517.412;22879.262;   -5.796;28154.959
517.998;24133.342;  -10.506;28344.111
518.585;25044.883;  -10.076;27134.219
519.171;24651.051;   -8.315;27268.576
519.758;25265.287;   -8.596;28964.129
520.344;27745.178;   -8.466;30664.494
520.930;26853.264;  -11.006;32550.605
521.516;25354.654;  -10.495;35422.895
522.103;27138.861;   -5.526;38280.004
522.689;29466.127;   -8.746;37835.117
523.275;30585.971;  -11.376;37288.613
523.861;32562.643;  -11.156;37281.395
524.447;32102.637;   -8.135;37846.949
525.033;32401.936;   -7.896;38321.949
525.619;33357.355;  -12.476;38579.285
526.205;33520.840;   -9.516;40622.875
526.791;33038.344;   -6.926;42258.836
527.377;32897.055;   -8.346;42966.902
527.963;34656.582;   -8.717;42018.949
528.549;36096.129;  -11.016;42476.828
529.135;34643.961;   -8.536;41854.852
529.721;34624.539;   -9.666;41237.711
530.306;33715.594;  -10.066;41259.445
530.892;34825.176;  -11.356;41506.047
531.478;36787.934;   -6.596;43559.613
532.063;38771.480;   -8.836;47695.563
532.649;37087.508;  -10.047;50808.324
533.235;37098.184;   -9.746;51787.500
533.820;39400.598;   -6.566;52145.035
534.406;41044.254;  -10.817;51133.488
534.991;43014.609;   -9.416;49996.805
535.576;41669.516;   -9.036;48882.852
536.162;39040.402;   -6.156;46942.285
536.747;39490.156;  -11.607;45711.746
537.333;42298.113;  -11.787;48510.180
537.918;43242.641;  -12.437;50439.891
538.503;42621.109;   -7.196;50863.711
539.088;43225.641;  -10.556;50906.922
539.673;44297.242;   -8.767;52621.965
540.259;41181.035;  -10.026;52368.094
540.844;40456.488;   -7.416;50879.109
541.429;40020.504;   -9.467;52077.777
542.014;39690.684;   -9.527;52716.695
542.599;42874.441;   -9.946;52363.281
543.184;44200.895;   -7.927;53187.137
543.769;44473.824;   -9.297;54697.605
544.354;44760.691;  -10.127;53913.914
544.938;42655.730;   -9.267;49680.164
545.523;40832.840;   -6.506;47386.277
546.108;42672.387;   -9.787;49151.949
546.693;43594.773;  -11.587;51384.637
547.278;43863.293;  -10.986;51853.254
547.862;44199.367;   -8.206;51173.750
548.447;42577.832;  -10.067;51691.395
549.031;42408.508;   -9.637;52456.703
549.616;42797.406;   -9.926;52714.516
550.201;41930.738;   -6.347;52414.598
550.785;43101.531;   -7.917;52355.059
551.370;44080.609;  -10.867;54589.453
551.954;46126.578;   -9.047;58267.348
552.538;45377.328;   -7.827;59062.176
553.123;43400.543;  -10.287;58115.285
553.707;42589.117;  -12.178;56556.285
554.291;40167.215;   -8.717;56201.668
554.876;41480.211;   -7.457;55335.762
555.460;43676.945;  -10.387;54155.703
556.044;45017.906;   -9.618;53721.484
556.628;45601.809;  -11.567;53731.016
557.212;46157.719;   -8.097;54312.531
557.796;47589.473;  -11.077;53797.773
558.380;45709.801;  -11.108;56145.984
558.964;44131.254;   -9.057;57277.930
559.548;41930.465;   -6.977;56459.641
560.132;38739.293;  -11.457;54434.543
560.716;40109.109;  -11.378;54800.617
561.300;42277.699;   -9.577;57606.945
561.884;41088.105;   -7.127;58972.445
562.467;39639.801;   -7.118;57327.570
563.051;38243.207;  -13.358;54962.434
563.635;36373.805;  -10.178;52594.473
564.219;38091.203;   -7.837;50610.410
564.802;41344.488;  -11.398;49551.180
565.386;41718.680;  -12.788;48370.953
565.969;42895.391;   -9.077;48178.871
566.553;41977.746;   -6.207;49957.305
567.136;40432.422;   -8.568;50369.594
567.720;41509.922;  -11.868;49492.004
568.303;42557.770;   -8.268;50616.352
568.887;41630.250;   -8.698;50727.148
569.470;39270.414;   -6.808;51698.379
570.053;37063.363;  -13.188;52122.078
570.637;34947.141;  -12.037;52536.438
571.220;35140.598;   -8.577;51186.098
571.803;35120.484;   -8.498;51032.762
572.386;37052.203;  -10.498;49609.887
572.969;37659.785;   -9.388;48285.926
573.552;37600.375;   -8.338;47624.285
574.135;36243.250;   -8.518;45498.641
574.718;32645.553;  -13.628;41970.434
575.301;33183.625;  -10.893;41447.137
575.884;33721.695;   -8.158;40923.836
576.467;38480.063;  -10.328;45267.723
577.050;39089.793;  -13.058;48175.543
577.633;37980.047;   -9.458;47729.328
578.216;34751.422;   -8.928;47579.793
578.799;32540.609;   -9.358;47820.996
579.381;34004.426;  -11.388;48115.551
579.964;34181.527;  -11.718;47333.766
580.547;33023.211;   -8.588;46668.969
581.129;33780.184;   -8.859;44466.141
581.712;35477.500;  -10.729;44164.922
582.294;35044.215;  -11.118;46477.855
582.877;35905.406;   -5.218;48244.254
583.459;36193.875;   -8.679;47437.895
584.042;37272.012;  -10.709;46943.219
584.624;35210.313;  -11.669;46792.227
585.206;33929.238;   -8.218;46557.250
585.789;34751.980;  -10.569;45793.773
586.371;35187.855;  -11.859;43836.391
586.953;36149.477;  -10.719;42972.492
587.536;37477.086;   -7.198;42487.211
588.118;36350.500;   -8.720;42086.414
588.700;35068.965;  -10.439;43389.930
589.282;32510.771;   -9.198;43646.039
589.864;30373.336;   -9.199;43438.109
590.446;30129.063;  -11.319;43151.926
591.028;29304.297;  -11.159;42781.867
591.610;28534.184;  -11.779;42839.098
592.192;28256.979;   -7.668;42820.402
592.774;26413.898;  -11.949;40724.277
593.356;25200.018;  -12.129;39874.789
593.937;27167.811;  -10.669;39980.648
594.519;31214.566;   -6.509;42069.633
595.101;32072.928;  -10.849;42976.031
