
Integration time [ms]:   3.276
Averaging Nr. [scans]: 1000
Smoothing Nr. [pixels]: 0
Data measured with spectrometer [name]: 7414430SP
Wave   ;Sample   ;Dark     ;Reference
[nm]   ;[counts] ;[counts] ;[counts] 

288.544;  150.471;    7.793;  793.890
289.143;  155.405;    7.462;  681.602
289.742;  155.839;    8.602;  828.814
290.341;  140.675;    1.321;  789.841
290.940;  129.785;   -0.709;  730.702
291.538;  130.749;    0.881;  881.108
292.137;  131.426;    0.122;  792.581
292.736;  136.018;   -1.929;  975.101
293.335;  131.621;   -8.229;  735.086
293.934;  132.619;   -5.279;  781.677
294.532;  131.898;   -1.369; 1031.958
295.131;  116.790;   -7.641;  834.394
295.730;  116.747;   -8.420;  809.588
296.328;  116.044;   -5.611;  783.442
296.927;  117.698;   -5.781;  779.652
297.525;  118.508;   -6.361;  781.236
298.124;  107.910;  -11.382;  654.009
298.722;  111.033;   -7.641;  761.933
299.321;  111.322;   -6.811;  708.597
299.919;  108.032;   -6.991;  751.918
300.518;  104.212;  -10.362;  689.338
301.116;  107.208;   -9.581;  691.381
301.715;  107.430;   -4.891;  730.222
302.313;  105.018;   -8.801;  704.943
302.911;  100.567;   -8.522;  733.830
303.509;  105.974;   -6.171;  925.627
304.108;  103.990;   -7.311;  760.383
304.706;  103.184;   -8.321;  801.664
305.304;   96.666;  -10.222;  796.707
305.902;  103.349;   -6.021;  784.484
306.500;   99.754;   -4.971;  728.200
307.098;   97.625;   -7.061;  746.560
307.696;   95.192;   -8.801;  780.432
308.294;   96.141;   -6.411;  731.359
308.892;   98.431;   -2.901;  759.769
309.490;   93.561;   -5.041;  712.161
310.088;   91.947;   -5.002;  788.444
310.686;   96.281;   -2.041;  821.749
311.284;   92.493;   -2.351;  766.040
311.882;   89.674;   -4.422;  731.225
312.480;   87.156;   -4.192;  697.167
313.078;   87.644;   -1.172;  808.331
313.675;   89.413;   -2.601;  691.600
314.273;   83.631;   -1.312;  797.837
314.871;   83.728;   -3.942;  589.829
315.468;   81.686;   -2.802;  652.090
316.066;   84.787;   -0.701;  694.427
316.664;   77.224;   -4.362;  656.351
317.261;   80.937;   -2.872;  910.128
317.859;   76.724;   -2.022;  768.735
318.456;   77.447;   -0.531;  830.096
319.054;   72.950;   -3.912;  787.828
319.651;   71.934;   -4.752;  759.928
320.249;   71.323;   -2.602;  810.188
320.846;   69.512;   -0.821;  714.286
321.443;   66.191;   -4.642;  832.135
322.041;   63.058;   -5.002;  812.315
322.638;   60.851;   -3.982;  701.456
323.235;   63.170;   -3.411;  665.683
323.833;   60.358;   -7.361;  740.354
324.430;   54.459;   -8.611;  615.900
325.027;   55.083;   -4.061;  876.855
325.624;   56.550;   -4.031;  644.532
326.221;   52.864;   -7.481;  689.717
326.818;   52.124;   -5.281;  818.332
327.415;   55.943;   -7.460;  748.828
328.012;   55.961;   -5.510;  690.585
328.609;   54.012;   -7.880;  731.389
329.206;   51.476;   -8.331;  778.621
329.803;   52.282;   -5.121;  737.841
330.400;   55.242;   -4.510;  704.260
330.997;   55.532;   -6.441;  817.147
331.594;   53.758;   -8.831;  788.185
332.191;   58.897;   -7.621;  728.722
332.787;   63.134;   -4.591;  844.463
333.384;   61.245;   -7.412;  763.093
333.981;   59.837;   -8.293;  815.687
334.578;   63.279;   -7.052;  708.378
335.174;   66.218;   -3.102;  731.469
335.771;   65.079;   -5.943;  836.456
336.367;   62.121;   -7.393;  710.631
336.964;   66.112;   -4.063;  793.266
337.561;   64.692;   -3.813;  731.112
338.157;   59.730;   -4.654;  911.916
338.754;   56.245;   -7.934;  796.589
339.350;   54.411;   -4.414;  722.493
339.946;   57.655;   -4.664;  773.135
340.543;   48.380;   -6.375;  846.136
341.139;   44.003;   -9.815;  720.836
341.735;   41.838;   -4.526;  772.593
342.332;   40.786;   -4.895;  691.472
342.928;   40.894;   -4.295;  795.394
343.524;   34.357;   -5.476;  761.684
344.120;   31.568;   -5.856;  738.562
344.716;   34.745;   -2.155;  723.717
345.313;   32.404;   -6.275;  795.342
345.909;   25.999;   -8.815;  627.336
346.505;   28.597;   -5.305;  740.247
347.101;   29.770;   -2.674;  827.864
347.697;   29.528;   -4.344;  785.398
348.293;   24.136;   -9.975;  627.244
348.889;   25.201;   -5.774;  745.914
349.485;   25.041;   -5.004;  688.205
350.081;   25.206;   -4.704;  772.592
350.676;   20.487;   -6.635;  691.606
351.272;   24.104;   -4.504;  809.530
351.868;   24.768;   -3.914;  780.497
352.464;   21.608;   -9.044;  723.932
353.059;   17.070;   -8.314;  646.017
353.655;   21.595;   -7.024;  777.063
354.251;   22.517;   -5.343;  759.845
354.846;   16.462;   -8.604;  740.646
355.442;   14.332;   -6.945;  753.071
356.038;   17.581;   -7.564;  751.708
356.633;   17.243;   -5.814;  728.594
357.229;   14.848;   -7.364;  724.757
357.824;   12.041;   -8.024;  703.600
358.420;   12.183;   -9.384;  679.726
359.015;   12.973;   -5.104;  695.357
359.610;   13.046;   -6.854;  763.920
360.206;    7.129;  -10.185;  603.240
360.801;   11.056;   -7.054;  646.503
361.396;   13.533;   -5.034;  725.975
361.992;    8.773;   -8.284;  668.220
362.587;    4.730;   -8.625;  670.160
363.182;    7.011;   -7.674;  689.631
363.777;    8.980;   -5.164;  738.242
364.372;    7.924;   -8.604;  737.314
364.967;    4.375;   -9.055;  680.744
365.563;    8.047;   -6.114;  815.567
366.158;    5.880;   -5.814;  685.161
366.753;    5.784;   -7.854;  649.263
367.348;    3.809;   -7.804;  746.056
367.942;    4.671;   -7.954;  697.298
368.537;    3.437;   -4.984;  754.245
369.132;    3.375;   -8.564;  703.428
369.727;   -0.793;   -8.855;  638.079
370.322;    0.966;   -6.245;  580.186
370.917;    0.922;   -6.425;  710.646
371.511;    4.224;   -6.294;  861.834
372.106;   -0.591;   -7.685;  776.964
372.701;   -3.209;   -7.335;  585.988
373.296;    3.201;   -4.564;  863.135
373.890;   -1.905;  -10.235;  647.840
374.485;   -4.867;   -7.885;  691.199
375.079;   -0.512;   -7.324;  738.685
375.674;    1.298;   -3.494;  812.970
376.268;   -3.566;   -8.525;  691.759
376.863;   -9.352;  -10.086;  580.327
377.457;   -3.670;   -7.025;  662.490
378.052;   -3.896;   -3.585;  764.884
378.646;   -5.967;   -7.595;  741.167
379.240;   -6.522;   -8.335;  721.176
379.835;   -5.004;   -5.785;  636.978
380.429;   -6.837;   -4.335;  562.557
381.023;   -7.134;   -6.805;  779.205
381.617;   -9.775;   -9.195;  680.106
382.212;   -6.143;   -6.905;  685.303
382.806;   -5.499;   -3.745;  760.690
383.400;   -9.481;   -7.745;  672.281
383.994;  -11.172;   -9.765;  664.870
384.588;   -6.396;   -6.564;  697.701
385.182;   -4.909;   -5.344;  726.624
385.776;   -6.559;   -8.514;  706.875
386.370;  -10.661;   -9.555;  681.968
386.964;   -8.611;   -8.715;  684.155
387.558;   -6.561;   -6.174;  598.360
388.152;   -9.746;   -8.725;  681.959
388.745;   -8.588;   -7.965;  814.707
389.339;   -7.931;   -5.924;  747.642
389.933;   -4.915;   -5.524;  695.370
390.527;   -7.291;   -7.114;  859.029
391.120;  -13.731;  -10.725;  595.318
391.714;  -10.595;   -8.035;  711.633
392.308;   -6.273;   -3.574;  780.253
392.901;  -11.226;   -7.245;  642.460
393.495;  -12.933;   -9.285;  595.414
394.089;  -11.069;   -5.895;  760.452
394.682;  -11.120;   -4.295;  697.188
395.275;  -11.743;   -9.875;  719.927
395.869;  -12.886;   -8.485;  667.314
396.462;  -11.759;   -7.455;  616.609
397.056;   -6.645;   -5.424;  776.621
397.649;  -11.669;   -6.605;  731.575
398.242;  -10.731;   -8.224;  712.645
398.836;   -8.526;   -7.474;  766.408
399.429;   -8.928;   -7.094;  631.041
400.022;  -13.176;   -9.475;  665.902
400.615;  -11.005;   -7.145;  805.609
401.208;   -8.876;   -7.174;  691.451
401.802;  -10.715;   -5.515;  699.329
402.395;  -11.739;   -9.875;  683.502
402.988;  -13.190;   -8.845;  696.627
403.581;   -9.499;   -8.874;  646.878
404.174;   -7.137;   -5.324;  686.568
404.767;  -10.501;   -9.575;  638.583
405.360;  -13.292;  -10.965;  621.445
405.953;   -8.093;   -8.764;  759.034
406.545;   -6.658;   -7.514;  725.342
407.138;  -11.436;  -10.025;  618.350
407.731;  -10.413;  -10.034;  613.303
408.324;   -6.174;   -9.374;  660.554
408.917;   -6.447;   -6.534;  681.864
409.509;   -8.813;   -8.004;  740.396
410.102;  -11.325;   -9.875;  643.948
410.695;   -5.105;   -8.604;  665.758
411.287;   -5.410;   -6.794;  599.821
411.880;   -7.369;   -9.334;  585.421
412.472;  -10.531;  -10.254;  613.092
413.065;   -6.900;   -6.714;  629.408
413.657;   -4.153;   -7.234;  576.678
414.250;   -5.008;  -10.544;  646.681
414.842;   -6.763;   -9.744;  676.353
415.434;   -4.553;   -6.994;  570.463
416.027;   -0.186;   -5.893;  652.196
416.619;   -2.450;   -7.264;  713.400
417.211;   -3.591;  -10.374;  599.352
417.804;    0.426;   -7.993;  628.499
418.396;   -2.632;   -7.234;  607.643
418.988;   -0.872;   -9.443;  659.238
419.580;   -4.945;  -10.724;  568.276
420.172;   -1.962;  -10.323;  536.196
420.764;    2.376;   -8.793;  672.482
421.356;    0.605;  -11.143;  636.898
421.948;   -0.101;   -8.293;  677.661
422.540;    5.178;   -7.893;  680.027
423.132;    5.009;   -7.082;  600.641
423.724;    2.000;   -8.653;  561.267
424.316;    3.014;  -10.213;  621.345
424.908;    5.885;   -9.762;  591.517
425.500;    7.313;   -5.572;  647.978
426.092;    8.144;   -8.422;  648.268
426.683;    6.715;   -9.283;  684.836
427.275;    9.079;   -7.852;  641.471
427.867;   11.612;   -5.272;  668.948
428.458;   11.623;   -7.682;  732.344
429.050;    9.857;  -10.612;  680.749
429.642;   13.044;   -9.882;  743.124
430.233;   13.663;   -6.962;  569.356
430.825;   13.905;   -6.842;  724.809
431.416;   11.335;   -9.672;  698.241
432.008;   15.486;   -6.552;  651.723
432.599;   16.536;   -6.891;  656.073
433.190;   13.635;  -10.912;  637.670
433.782;   12.758;  -11.172;  590.395
434.373;   19.444;   -6.061;  884.765
434.964;   18.660;   -8.251;  602.920
435.556;   16.448;   -9.722;  634.537
436.147;   18.450;   -9.082;  758.490
436.738;   19.798;   -8.041;  701.099
437.329;   25.140;   -7.341;  721.723
437.920;   17.635;   -8.162;  666.688
438.511;   17.121;  -11.802;  564.526
439.103;   23.892;  -10.191;  623.998
439.694;   25.609;   -7.601;  681.583
440.285;   26.974;   -8.541;  764.432
440.876;   24.759;   -9.751;  845.738
441.466;   24.186;   -9.401;  575.162
442.057;   29.335;   -7.760;  665.814
442.648;   28.871;   -9.971;  746.255
443.239;   26.461;  -11.001;  620.477
443.830;   31.673;   -7.990;  704.958
444.421;   33.996;   -7.910;  655.474
445.011;   30.414;   -8.131;  693.619
445.602;   29.145;   -7.111;  743.126
446.193;   31.772;  -10.920;  488.117
446.783;   36.255;   -6.500;  640.397
447.374;   31.780;   -8.671;  692.759
447.964;   31.316;  -10.781;  713.770
448.555;   40.228;   -9.650;  822.742
449.145;   37.633;   -8.660;  662.853
449.736;   38.392;   -8.990;  803.179
450.326;   37.823;   -9.500;  713.626
450.917;   42.759;   -8.680;  675.324
451.507;   42.586;   -7.520;  600.661
452.097;   43.791;   -8.590;  746.267
452.688;   43.789;  -11.340;  742.160
453.278;   43.658;  -10.100;  566.840
453.868;   48.868;   -6.019;  793.550
454.458;   46.271;   -9.440;  651.141
455.048;   46.220;  -10.560;  711.783
455.639;   47.983;  -11.799;  567.096
456.229;   52.715;   -6.899;  710.694
456.819;   53.357;   -7.389;  751.158
457.409;   54.696;  -11.119;  773.993
457.999;   56.431;   -9.289;  737.505
458.589;   57.289;   -6.139;  686.606
459.179;   56.342;   -8.729;  717.658
459.769;   54.496;   -9.789;  627.099
460.358;   59.182;  -10.259;  797.262
460.948;   59.699;   -7.299;  689.503
461.538;   61.404;  -10.289;  660.677
462.128;   58.687;  -11.269;  664.934
462.717;   65.518;   -9.368;  710.326
463.307;   68.929;   -7.908;  705.846
463.897;   65.008;   -9.599;  656.942
464.486;   64.084;   -9.769;  837.128
465.076;   68.502;   -8.048;  733.776
465.666;   72.884;   -9.358;  652.900
466.255;   70.294;   -7.919;  785.651
466.845;   68.690;  -11.689;  666.749
467.434;   71.899;   -7.818;  725.873
468.023;   73.972;   -7.678;  658.357
468.613;   71.320;  -10.939;  713.946
469.202;   75.078;  -10.118;  646.507
469.791;   79.247;   -9.108;  737.811
470.381;   81.558;   -6.058;  742.813
470.970;   81.328;  -10.428;  711.099
471.559;   81.150;  -10.268;  733.291
472.148;   84.258;   -8.448;  675.737
472.738;   87.542;   -6.917;  765.466
473.327;   86.241;  -11.978;  637.529
473.916;   85.521;  -11.888;  737.446
474.505;   89.631;   -9.437;  751.703
475.094;   94.663;   -6.747;  806.570
475.683;   93.013;   -9.367;  797.699
476.272;   93.303;  -12.637;  730.632
476.861;   96.984;  -10.027;  706.754
477.449;  104.028;   -8.716;  728.487
478.038;   98.687;   -9.577;  692.513
478.627;   98.584;   -9.718;  714.852
479.216;  106.558;   -8.947;  769.441
479.805;  109.502;   -6.256;  783.375
480.393;  108.770;   -7.937; 1008.945
480.982;  107.641;   -7.717;  874.501
481.571;  114.657;   -9.266;  858.333
482.159;  116.045;   -7.636;  705.386
482.748;  114.661;   -9.667;  821.385
483.336;  118.732;  -10.376;  858.209
483.925;  120.367;   -7.147;  774.373
484.513;  128.319;   -7.996;  758.962
485.102;  124.419;  -10.027;  810.965
485.690;  131.719;  -10.446; 1011.050
486.278;  134.705;   -8.446;  979.329
486.867;  136.680;   -6.356;  809.662
487.455;  137.868;   -9.136;  898.229
488.043;  138.682;  -10.646;  748.361
488.631;  148.189;   -7.456; 1005.079
489.220;  152.947;   -6.636;  908.626
489.808;  152.803;  -11.036;  741.415
490.396;  160.699;  -10.246;  914.645
490.984;  166.753;   -8.556;  830.161
491.572;  177.548;   -5.886;  940.315
492.160;  184.131;   -9.486;  919.081
492.748;  196.748;  -10.976;  884.341
493.336;  220.966;   -8.776; 1019.693
493.924;  250.272;   -5.465;  958.077
494.512;  280.401;   -9.986; 1066.638
495.100;  320.547;  -10.636; 1103.280
495.687;  378.048;  -10.885; 1206.373
496.275;  443.851;   -8.126; 1150.796
496.863;  515.644;  -10.586; 1281.171
497.451;  621.669;  -11.926; 1386.805
498.038;  777.331;  -10.885; 1556.729
498.626;  902.974;   -6.315; 1741.407
499.214; 1055.339;   -7.326; 2016.609
499.801; 1267.012;  -11.906; 2220.633
500.389; 1544.317;  -10.466; 2312.494
500.976; 1908.835;   -5.236; 2744.849
501.564; 2349.713;   -8.936; 3148.565
502.151; 2748.250;  -13.176; 3515.999
502.738; 3269.304;  -10.646; 3971.274
503.326; 3692.436;   -9.525; 4403.796
503.913; 4144.111;  -10.856; 5161.749
504.500; 4518.809;  -11.586; 5986.420
505.088; 4999.464;  -10.336; 6381.201
505.675; 5588.862;   -6.355; 6925.547
506.262; 6245.128;   -9.046; 7619.060
506.849; 7085.909;  -10.416; 8733.969
507.436; 7588.773;  -10.305; 9790.121
508.023; 8053.194;   -5.496; 9985.472
508.610; 8345.240;   -7.856;10434.618
509.197; 9139.900;  -10.097;11198.435
509.784;10755.434;  -10.886;12391.194
510.371;11957.635;   -9.315;13603.713
510.958;12677.094;   -9.936;14426.586
511.545;13345.315;   -9.326;15243.775
512.132;13987.664;  -10.075;15945.876
512.719;14650.169;   -7.796;16340.369
513.305;15902.007;  -10.606;18011.766
513.892;16862.031;  -11.486;19754.971
514.479;18511.090;   -9.126;20967.805
515.066;20050.111;   -6.026;22299.793
515.652;21190.426;   -8.466;22908.660
516.239;22443.004;  -10.886;23798.875
516.825;23147.281;  -11.496;25567.275
517.412;24077.820;   -5.796;28154.959
517.998;25170.256;  -10.506;28344.111
518.585;25371.455;  -10.076;27134.219
519.171;25430.064;   -8.315;27268.576
519.758;26788.889;   -8.596;28964.129
520.344;28522.787;   -8.466;30664.494
520.930;28607.877;  -11.006;32550.605
521.516;30567.297;  -10.495;35422.895
522.103;33455.910;   -5.526;38280.004
522.689;34265.918;   -8.746;37835.117
523.275;33513.898;  -11.376;37288.613
523.861;34246.543;  -11.156;37281.395
524.447;35815.578;   -8.135;37846.949
525.033;35629.074;   -7.896;38321.949
525.619;36035.926;  -12.476;38579.285
526.205;37298.559;   -9.516;40622.875
526.791;40063.008;   -6.926;42258.836
527.377;40411.508;   -8.346;42966.902
527.963;42513.832;   -8.717;42018.949
528.549;41485.891;  -11.016;42476.828
529.135;39257.805;   -8.536;41854.852
529.721;38615.035;   -9.666;41237.711
530.306;37840.563;  -10.066;41259.445
530.892;37920.559;  -11.356;41506.047
531.478;39152.688;   -6.596;43559.613
532.063;41432.820;   -8.836;47695.563
532.649;41855.652;  -10.047;50808.324
533.235;43562.633;   -9.746;51787.500
533.820;45232.285;   -6.566;52145.035
534.406;45536.113;  -10.817;51133.488
534.991;44975.270;   -9.416;49996.805
535.576;43939.434;   -9.036;48882.852
536.162;44440.012;   -6.156;46942.285
536.747;45232.984;  -11.607;45711.746
537.333;48685.840;  -11.787;48510.180
537.918;51539.563;  -12.437;50439.891
538.503;50310.945;   -7.196;50863.711
539.088;47239.012;  -10.556;50906.922
539.673;47701.715;   -8.767;52621.965
540.259;47772.871;  -10.026;52368.094
540.844;44824.445;   -7.416;50879.109
541.429;45146.961;   -9.467;52077.777
542.014;48678.098;   -9.527;52716.695
542.599;49217.234;   -9.946;52363.281
543.184;45828.582;   -7.927;53187.137
543.769;46749.090;   -9.297;54697.605
544.354;46964.516;  -10.127;53913.914
544.938;46103.352;   -9.267;49680.164
545.523;48242.297;   -6.506;47386.277
546.108;50455.996;   -9.787;49151.949
546.693;52384.977;  -11.587;51384.637
547.278;52097.188;  -10.986;51853.254
547.862;48501.867;   -8.206;51173.750
548.447;43673.215;  -10.067;51691.395
549.031;43039.660;   -9.637;52456.703
549.616;48237.719;   -9.926;52714.516
550.201;47974.148;   -6.347;52414.598
550.785;47864.336;   -7.917;52355.059
551.370;47596.215;  -10.867;54589.453
551.954;48041.336;   -9.047;58267.348
552.538;49751.332;   -7.827;59062.176
553.123;48624.063;  -10.287;58115.285
553.707;46112.613;  -12.178;56556.285
554.291;46351.879;   -8.717;56201.668
554.876;46979.336;   -7.457;55335.762
555.460;47765.031;  -10.387;54155.703
556.044;50187.813;   -9.618;53721.484
556.628;48163.418;  -11.567;53731.016
557.212;47528.832;   -8.097;54312.531
557.796;45922.191;  -11.077;53797.773
558.380;46198.629;  -11.108;56145.984
558.964;46660.965;   -9.057;57277.930
559.548;47210.926;   -6.977;56459.641
560.132;45411.496;  -11.457;54434.543
560.716;44293.063;  -11.378;54800.617
561.300;44645.133;   -9.577;57606.945
561.884;45947.902;   -7.127;58972.445
562.467;45133.789;   -7.118;57327.570
563.051;44443.684;  -13.358;54962.434
563.635;44654.871;  -10.178;52594.473
564.219;45619.359;   -7.837;50610.410
564.802;46564.801;  -11.398;49551.180
565.386;46651.098;  -12.788;48370.953
565.969;45966.590;   -9.077;48178.871
566.553;45132.711;   -6.207;49957.305
567.136;45453.043;   -8.568;50369.594
567.720;41669.754;  -11.868;49492.004
568.303;39870.094;   -8.268;50616.352
568.887;39670.230;   -8.698;50727.148
569.470;40077.902;   -6.808;51698.379
570.053;38803.281;  -13.188;52122.078
570.637;37582.543;  -12.037;52536.438
571.220;37337.281;   -8.577;51186.098
571.803;37455.043;   -8.498;51032.762
572.386;39482.676;  -10.498;49609.887
572.969;42651.945;   -9.388;48285.926
573.552;41294.891;   -8.338;47624.285
574.135;40284.820;   -8.518;45498.641
574.718;37110.707;  -13.628;41970.434
575.301;36034.656;  -10.893;41447.137
575.884;34958.609;   -8.158;40923.836
576.467;35700.484;  -10.328;45267.723
577.050;38331.859;  -13.058;48175.543
577.633;40113.059;   -9.458;47729.328
578.216;38921.715;   -8.928;47579.793
578.799;37868.254;   -9.358;47820.996
579.381;36187.797;  -11.388;48115.551
579.964;34268.246;  -11.718;47333.766
580.547;35394.867;   -8.588;46668.969
581.129;35688.680;   -8.859;44466.141
581.712;35969.617;  -10.729;44164.922
582.294;37054.836;  -11.118;46477.855
582.877;37972.805;   -5.218;48244.254
583.459;36416.719;   -8.679;47437.895
584.042;34617.496;  -10.709;46943.219
584.624;34789.934;  -11.669;46792.227
585.206;33797.027;   -8.218;46557.250
585.789;34103.547;  -10.569;45793.773
586.371;37398.816;  -11.859;43836.391
586.953;38092.133;  -10.719;42972.492
587.536;38622.191;   -7.198;42487.211
588.118;38767.906;   -8.720;42086.414
588.700;35316.766;  -10.439;43389.930
589.282;34286.254;   -9.198;43646.039
589.864;34759.941;   -9.199;43438.109
590.446;36310.766;  -11.319;43151.926
591.028;35939.488;  -11.159;42781.867
591.610;34866.895;  -11.779;42839.098
592.192;31822.031;   -7.668;42820.402
592.774;30358.773;  -11.949;40724.277
593.356;29500.205;  -12.129;39874.789
593.937;29144.889;  -10.669;39980.648
594.519;31191.650;   -6.509;42069.633
595.101;33308.586;  -10.849;42976.031
