
Integration time [ms]:   3.276
Averaging Nr. [scans]: 1000
Smoothing Nr. [pixels]: 0
Data measured with spectrometer [name]: 7414430SP
Wave   ;Sample   ;Dark     ;Reference
[nm]   ;[counts] ;[counts] ;[counts] 

288.544;  151.986;    7.793;  793.890
289.143;  154.425;    7.462;  681.602
289.742;  155.217;    8.602;  828.814
290.341;  140.777;    1.321;  789.841
290.940;  130.596;   -0.709;  730.702
291.538;  131.164;    0.881;  881.108
292.137;  129.829;    0.122;  792.581
292.736;  135.974;   -1.929;  975.101
293.335;  133.267;   -8.229;  735.086
293.934;  131.951;   -5.279;  781.677
294.532;  130.811;   -1.369; 1031.958
295.131;  116.748;   -7.641;  834.394
295.730;  117.521;   -8.420;  809.588
296.328;  114.979;   -5.611;  783.442
296.927;  116.481;   -5.781;  779.652
297.525;  118.513;   -6.361;  781.236
298.124;  108.002;  -11.382;  654.009
298.722;  111.087;   -7.641;  761.933
299.321;  108.858;   -6.811;  708.597
299.919;  108.008;   -6.991;  751.918
300.518;  104.852;  -10.362;  689.338
301.116;  105.903;   -9.581;  691.381
301.715;  104.644;   -4.891;  730.222
302.313;  105.949;   -8.801;  704.943
302.911;  100.597;   -8.522;  733.830
303.509;  105.408;   -6.171;  925.627
304.108;  103.002;   -7.311;  760.383
304.706;  102.753;   -8.321;  801.664
305.304;   96.947;  -10.222;  796.707
305.902;  101.521;   -6.021;  784.484
306.500;   97.837;   -4.971;  728.200
307.098;   97.092;   -7.061;  746.560
307.696;   95.346;   -8.801;  780.432
308.294;   93.567;   -6.411;  731.359
308.892;   96.294;   -2.901;  759.769
309.490;   93.516;   -5.041;  712.161
310.088;   92.028;   -5.002;  788.444
310.686;   95.208;   -2.041;  821.749
311.284;   90.840;   -2.351;  766.040
311.882;   89.672;   -4.422;  731.225
312.480;   86.433;   -4.192;  697.167
313.078;   87.178;   -1.172;  808.331
313.675;   87.922;   -2.601;  691.600
314.273;   83.851;   -1.312;  797.837
314.871;   82.958;   -3.942;  589.829
315.468;   79.969;   -2.802;  652.090
316.066;   82.901;   -0.701;  694.427
316.664;   76.716;   -4.362;  656.351
317.261;   80.341;   -2.872;  910.128
317.859;   75.846;   -2.022;  768.735
318.456;   75.322;   -0.531;  830.096
319.054;   73.006;   -3.912;  787.828
319.651;   71.252;   -4.752;  759.928
320.249;   69.575;   -2.602;  810.188
320.846;   67.428;   -0.821;  714.286
321.443;   65.470;   -4.642;  832.135
322.041;   62.842;   -5.002;  812.315
322.638;   59.771;   -3.982;  701.456
323.235;   60.489;   -3.411;  665.683
323.833;   58.932;   -7.361;  740.354
324.430;   54.162;   -8.611;  615.900
325.027;   54.179;   -4.061;  876.855
325.624;   54.283;   -4.031;  644.532
326.221;   52.813;   -7.481;  689.717
326.818;   52.190;   -5.281;  818.332
327.415;   54.107;   -7.460;  748.828
328.012;   52.411;   -5.510;  690.585
328.609;   52.917;   -7.880;  731.389
329.206;   51.266;   -8.331;  778.621
329.803;   50.173;   -5.121;  737.841
330.400;   53.354;   -4.510;  704.260
330.997;   55.235;   -6.441;  817.147
331.594;   53.659;   -8.831;  788.185
332.191;   58.169;   -7.621;  728.722
332.787;   60.579;   -4.591;  844.463
333.384;   60.096;   -7.412;  763.093
333.981;   58.209;   -8.293;  815.687
334.578;   61.053;   -7.052;  708.378
335.174;   63.749;   -3.102;  731.469
335.771;   64.201;   -5.943;  836.456
336.367;   60.741;   -7.393;  710.631
336.964;   64.334;   -4.063;  793.266
337.561;   61.506;   -3.813;  731.112
338.157;   58.086;   -4.654;  911.916
338.754;   55.865;   -7.934;  796.589
339.350;   52.864;   -4.414;  722.493
339.946;   55.369;   -4.664;  773.135
340.543;   47.544;   -6.375;  846.136
341.139;   42.378;   -9.815;  720.836
341.735;   40.048;   -4.526;  772.593
342.332;   38.318;   -4.895;  691.472
342.928;   39.537;   -4.295;  795.394
343.524;   33.629;   -5.476;  761.684
344.120;   29.600;   -5.856;  738.562
344.716;   31.861;   -2.155;  723.717
345.313;   30.536;   -6.275;  795.342
345.909;   25.406;   -8.815;  627.336
346.505;   26.921;   -5.305;  740.247
347.101;   27.198;   -2.674;  827.864
347.697;   28.747;   -4.344;  785.398
348.293;   23.034;   -9.975;  627.244
348.889;   23.067;   -5.774;  745.914
349.485;   22.131;   -5.004;  688.205
350.081;   23.561;   -4.704;  772.592
350.676;   18.427;   -6.635;  691.606
351.272;   21.965;   -4.504;  809.530
351.868;   21.798;   -3.914;  780.497
352.464;   19.758;   -9.044;  723.932
353.059;   16.389;   -8.314;  646.017
353.655;   18.772;   -7.024;  777.063
354.251;   19.921;   -5.343;  759.845
354.846;   15.477;   -8.604;  740.646
355.442;   12.291;   -6.945;  753.071
356.038;   13.973;   -7.564;  751.708
356.633;   13.969;   -5.814;  728.594
357.229;   12.934;   -7.364;  724.757
357.824;   10.773;   -8.024;  703.600
358.420;    9.245;   -9.384;  679.726
359.015;   10.330;   -5.104;  695.357
359.610;   11.324;   -6.854;  763.920
360.206;    5.504;  -10.185;  603.240
360.801;    7.814;   -7.054;  646.503
361.396;   10.608;   -5.034;  725.975
361.992;    6.256;   -8.284;  668.220
362.587;    3.125;   -8.625;  670.160
363.182;    4.682;   -7.674;  689.631
363.777;    5.561;   -5.164;  738.242
364.372;    6.316;   -8.604;  737.314
364.967;    1.751;   -9.055;  680.744
365.563;    5.962;   -6.114;  815.567
366.158;    2.946;   -5.814;  685.161
366.753;    4.071;   -7.854;  649.263
367.348;    2.490;   -7.804;  746.056
367.942;    2.167;   -7.954;  697.298
368.537;    0.869;   -4.984;  754.245
369.132;    1.488;   -8.564;  703.428
369.727;   -3.172;   -8.855;  638.079
370.322;   -1.660;   -6.245;  580.186
370.917;   -2.416;   -6.425;  710.646
371.511;    1.499;   -6.294;  861.834
372.106;   -2.859;   -7.685;  776.964
372.701;   -6.312;   -7.335;  585.988
373.296;   -0.437;   -4.564;  863.135
373.890;   -4.257;  -10.235;  647.840
374.485;   -5.988;   -7.885;  691.199
375.079;   -3.194;   -7.324;  738.685
375.674;   -1.678;   -3.494;  812.970
376.268;   -5.715;   -8.525;  691.759
376.863;  -12.525;  -10.086;  580.327
377.457;   -5.895;   -7.025;  662.490
378.052;   -8.588;   -3.585;  764.884
378.646;   -7.786;   -7.595;  741.167
379.240;   -8.924;   -8.335;  721.176
379.835;   -7.737;   -5.785;  636.978
380.429;  -10.674;   -4.335;  562.557
381.023;   -9.104;   -6.805;  779.205
381.617;  -11.773;   -9.195;  680.106
382.212;   -8.855;   -6.905;  685.303
382.806;   -8.132;   -3.745;  760.690
383.400;  -11.768;   -7.745;  672.281
383.994;  -12.677;   -9.765;  664.870
384.588;   -9.634;   -6.564;  697.701
385.182;   -8.204;   -5.344;  726.624
385.776;   -9.336;   -8.514;  706.875
386.370;  -12.550;   -9.555;  681.968
386.964;  -12.675;   -8.715;  684.155
387.558;  -10.404;   -6.174;  598.360
388.152;  -12.587;   -8.725;  681.959
388.745;  -11.451;   -7.965;  814.707
389.339;  -10.291;   -5.924;  747.642
389.933;   -9.035;   -5.524;  695.370
390.527;  -10.101;   -7.114;  859.029
391.120;  -15.709;  -10.725;  595.318
391.714;  -13.909;   -8.035;  711.633
392.308;  -11.183;   -3.574;  780.253
392.901;  -12.776;   -7.245;  642.460
393.495;  -15.045;   -9.285;  595.414
394.089;  -14.224;   -5.895;  760.452
394.682;  -14.209;   -4.295;  697.188
395.275;  -14.283;   -9.875;  719.927
395.869;  -15.767;   -8.485;  667.314
396.462;  -14.211;   -7.455;  616.609
397.056;  -10.824;   -5.424;  776.621
397.649;  -14.670;   -6.605;  731.575
398.242;  -11.975;   -8.224;  712.645
398.836;  -12.564;   -7.474;  766.408
399.429;  -14.066;   -7.094;  631.041
400.022;  -15.805;   -9.475;  665.902
400.615;  -13.336;   -7.145;  805.609
401.208;  -12.222;   -7.174;  691.451
401.802;  -14.490;   -5.515;  699.329
402.395;  -15.248;   -9.875;  683.502
402.988;  -16.451;   -8.845;  696.627
403.581;  -12.920;   -8.874;  646.878
404.174;  -11.111;   -5.324;  686.568
404.767;  -13.407;   -9.575;  638.583
405.360;  -16.130;  -10.965;  621.445
405.953;  -11.099;   -8.764;  759.034
406.545;  -10.140;   -7.514;  725.342
407.138;  -14.127;  -10.025;  618.350
407.731;  -13.198;  -10.034;  613.303
408.324;   -9.654;   -9.374;  660.554
408.917;  -10.233;   -6.534;  681.864
409.509;  -12.472;   -8.004;  740.396
410.102;  -13.834;   -9.875;  643.948
410.695;   -8.151;   -8.604;  665.758
411.287;   -9.648;   -6.794;  599.821
411.880;   -9.707;   -9.334;  585.421
412.472;  -12.560;  -10.254;  613.092
413.065;  -10.888;   -6.714;  629.408
413.657;   -8.387;   -7.234;  576.678
414.250;   -8.327;  -10.544;  646.681
414.842;   -9.563;   -9.744;  676.353
415.434;   -8.511;   -6.994;  570.463
416.027;   -4.210;   -5.893;  652.196
416.619;   -5.290;   -7.264;  713.400
417.211;   -5.925;  -10.374;  599.352
417.804;   -3.157;   -7.993;  628.499
418.396;   -7.069;   -7.234;  607.643
418.988;   -3.878;   -9.443;  659.238
419.580;   -7.578;  -10.724;  568.276
420.172;   -6.521;  -10.323;  536.196
420.764;   -1.790;   -8.793;  672.482
421.356;   -2.641;  -11.143;  636.898
421.948;   -3.631;   -8.293;  677.661
422.540;    1.207;   -7.893;  680.027
423.132;    0.320;   -7.082;  600.641
423.724;   -2.074;   -8.653;  561.267
424.316;   -0.395;  -10.213;  621.345
424.908;    2.432;   -9.762;  591.517
425.500;    3.244;   -5.572;  647.978
426.092;    4.551;   -8.422;  648.268
426.683;    2.694;   -9.283;  684.836
427.275;    5.822;   -7.852;  641.471
427.867;    7.285;   -5.272;  668.948
428.458;    8.173;   -7.682;  732.344
429.050;    6.916;  -10.612;  680.749
429.642;    7.581;   -9.882;  743.124
430.233;    8.244;   -6.962;  569.356
430.825;   10.321;   -6.842;  724.809
431.416;    7.957;   -9.672;  698.241
432.008;   11.620;   -6.552;  651.723
432.599;   11.629;   -6.891;  656.073
433.190;    9.564;  -10.912;  637.670
433.782;    8.363;  -11.172;  590.395
434.373;   15.711;   -6.061;  884.765
434.964;   13.444;   -8.251;  602.920
435.556;   11.748;   -9.722;  634.537
436.147;   15.260;   -9.082;  758.490
436.738;   14.283;   -8.041;  701.099
437.329;   20.038;   -7.341;  721.723
437.920;   13.800;   -8.162;  666.688
438.511;   13.009;  -11.802;  564.526
439.103;   19.324;  -10.191;  623.998
439.694;   21.509;   -7.601;  681.583
440.285;   22.336;   -8.541;  764.432
440.876;   20.584;   -9.751;  845.738
441.466;   19.635;   -9.401;  575.162
442.057;   24.415;   -7.760;  665.814
442.648;   24.565;   -9.971;  746.255
443.239;   22.205;  -11.001;  620.477
443.830;   26.961;   -7.990;  704.958
444.421;   28.989;   -7.910;  655.474
445.011;   24.998;   -8.131;  693.619
445.602;   25.325;   -7.111;  743.126
446.193;   26.985;  -10.920;  488.117
446.783;   31.159;   -6.500;  640.397
447.374;   26.756;   -8.671;  692.759
447.964;   27.721;  -10.781;  713.770
448.555;   35.538;   -9.650;  822.742
449.145;   31.913;   -8.660;  662.853
449.736;   33.570;   -8.990;  803.179
450.326;   33.518;   -9.500;  713.626
450.917;   38.287;   -8.680;  675.324
451.507;   37.170;   -7.520;  600.661
452.097;   37.544;   -8.590;  746.267
452.688;   39.180;  -11.340;  742.160
453.278;   38.586;  -10.100;  566.840
453.868;   42.588;   -6.019;  793.550
454.458;   41.348;   -9.440;  651.141
455.048;   41.686;  -10.560;  711.783
455.639;   43.395;  -11.799;  567.096
456.229;   46.270;   -6.899;  710.694
456.819;   48.760;   -7.389;  751.158
457.409;   48.743;  -11.119;  773.993
457.999;   51.279;   -9.289;  737.505
458.589;   50.156;   -6.139;  686.606
459.179;   51.285;   -8.729;  717.658
459.769;   50.025;   -9.789;  627.099
460.358;   54.085;  -10.259;  797.262
460.948;   53.379;   -7.299;  689.503
461.538;   56.370;  -10.289;  660.677
462.128;   53.677;  -11.269;  664.934
462.717;   60.158;   -9.368;  710.326
463.307;   62.915;   -7.908;  705.846
463.897;   59.668;   -9.599;  656.942
464.486;   59.106;   -9.769;  837.128
465.076;   62.653;   -8.048;  733.776
465.666;   65.846;   -9.358;  652.900
466.255;   64.645;   -7.919;  785.651
466.845;   63.417;  -11.689;  666.749
467.434;   66.262;   -7.818;  725.873
468.023;   67.452;   -7.678;  658.357
468.613;   65.558;  -10.939;  713.946
469.202;   69.803;  -10.118;  646.507
469.791;   73.413;   -9.108;  737.811
470.381;   74.762;   -6.058;  742.813
470.970;   74.685;  -10.428;  711.099
471.559;   75.338;  -10.268;  733.291
472.148;   78.103;   -8.448;  675.737
472.738;   79.953;   -6.917;  765.466
473.327;   79.999;  -11.978;  637.529
473.916;   79.581;  -11.888;  737.446
474.505;   84.107;   -9.437;  751.703
475.094;   86.420;   -6.747;  806.570
475.683;   86.359;   -9.367;  797.699
476.272;   88.002;  -12.637;  730.632
476.861;   89.758;  -10.027;  706.754
477.449;   96.456;   -8.716;  728.487
478.038;   90.762;   -9.577;  692.513
478.627;   92.294;   -9.718;  714.852
479.216;   98.302;   -8.947;  769.441
479.805;  101.599;   -6.256;  783.375
480.393;  102.011;   -7.937; 1008.945
480.982;  100.253;   -7.717;  874.501
481.571;  106.827;   -9.266;  858.333
482.159;  106.076;   -7.636;  705.386
482.748;  107.790;   -9.667;  821.385
483.336;  112.216;  -10.376;  858.209
483.925;  112.038;   -7.147;  774.373
484.513;  119.115;   -7.996;  758.962
485.102;  116.119;  -10.027;  810.965
485.690;  124.181;  -10.446; 1011.050
486.278;  126.161;   -8.446;  979.329
486.867;  126.476;   -6.356;  809.662
487.455;  128.182;   -9.136;  898.229
488.043;  130.528;  -10.646;  748.361
488.631;  137.852;   -7.456; 1005.079
489.220;  141.891;   -6.636;  908.626
489.808;  143.204;  -11.036;  741.415
490.396;  150.466;  -10.246;  914.645
490.984;  155.966;   -8.556;  830.161
491.572;  165.995;   -5.886;  940.315
492.160;  172.011;   -9.486;  919.081
492.748;  184.660;  -10.976;  884.341
493.336;  205.508;   -8.776; 1019.693
493.924;  232.104;   -5.465;  958.077
494.512;  259.748;   -9.986; 1066.638
495.100;  296.594;  -10.636; 1103.280
495.687;  352.055;  -10.885; 1206.373
496.275;  414.653;   -8.126; 1150.796
496.863;  483.701;  -10.586; 1281.171
497.451;  582.741;  -11.926; 1386.805
498.038;  714.940;  -10.885; 1556.729
498.626;  818.899;   -6.315; 1741.407
499.214;  967.582;   -7.326; 2016.609
499.801; 1165.915;  -11.906; 2220.633
500.389; 1397.924;  -10.466; 2312.494
500.976; 1703.912;   -5.236; 2744.849
501.564; 2135.409;   -8.936; 3148.565
502.151; 2504.203;  -13.176; 3515.999
502.738; 2930.435;  -10.646; 3971.274
503.326; 3301.246;   -9.525; 4403.796
503.913; 3702.139;  -10.856; 5161.749
504.500; 4076.593;  -11.586; 5986.420
505.088; 4455.679;  -10.336; 6381.201
505.675; 4985.457;   -6.355; 6925.547
506.262; 5696.374;   -9.046; 7619.060
506.849; 6428.118;  -10.416; 8733.969
507.436; 6944.291;  -10.305; 9790.121
508.023; 7529.377;   -5.496; 9985.472
508.610; 7734.009;   -7.856;10434.618
509.197; 8336.615;  -10.097;11198.435
509.784; 9650.454;  -10.886;12391.194
510.371;10757.104;   -9.315;13603.713
510.958;11471.507;   -9.936;14426.586
511.545;12123.292;   -9.326;15243.775
512.132;12988.519;  -10.075;15945.876
512.719;13670.943;   -7.796;16340.369
513.305;14810.661;  -10.606;18011.766
513.892;15579.823;  -11.486;19754.971
514.479;16760.617;   -9.126;20967.805
515.066;18010.482;   -6.026;22299.793
515.652;19331.857;   -8.466;22908.660
516.239;20733.928;  -10.886;23798.875
516.825;21813.355;  -11.496;25567.275
517.412;22993.250;   -5.796;28154.959
517.998;23600.838;  -10.506;28344.111
518.585;23452.461;  -10.076;27134.219
519.171;23990.107;   -8.315;27268.576
519.758;25889.828;   -8.596;28964.129
520.344;27763.582;   -8.466;30664.494
520.930;27383.242;  -11.006;32550.605
521.516;28720.531;  -10.495;35422.895
522.103;30883.658;   -5.526;38280.004
522.689;31636.826;   -8.746;37835.117
523.275;30875.297;  -11.376;37288.613
523.861;31894.891;  -11.156;37281.395
524.447;33511.266;   -8.135;37846.949
525.033;33302.195;   -7.896;38321.949
525.619;33399.840;  -12.476;38579.285
526.205;34734.852;   -9.516;40622.875
526.791;37203.922;   -6.926;42258.836
527.377;36924.828;   -8.346;42966.902
527.963;38184.488;   -8.717;42018.949
528.549;37100.746;  -11.016;42476.828
529.135;35537.836;   -8.536;41854.852
529.721;34054.996;   -9.666;41237.711
530.306;32253.871;  -10.066;41259.445
530.892;30346.867;  -11.356;41506.047
531.478;31161.443;   -6.596;43559.613
532.063;35751.648;   -8.836;47695.563
532.649;38225.676;  -10.047;50808.324
533.235;39425.996;   -9.746;51787.500
533.820;39743.164;   -6.566;52145.035
534.406;39786.383;  -10.817;51133.488
534.991;37762.633;   -9.416;49996.805
535.576;33657.730;   -9.036;48882.852
536.162;31866.990;   -6.156;46942.285
536.747;34082.688;  -11.607;45711.746
537.333;41500.730;  -11.787;48510.180
537.918;48444.840;  -12.437;50439.891
538.503;49746.801;   -7.196;50863.711
539.088;47435.980;  -10.556;50906.922
539.673;47733.016;   -8.767;52621.965
540.259;47684.512;  -10.026;52368.094
540.844;44744.313;   -7.416;50879.109
541.429;46150.426;   -9.467;52077.777
542.014;48761.332;   -9.527;52716.695
542.599;47974.254;   -9.946;52363.281
543.184;45049.438;   -7.927;53187.137
543.769;46358.617;   -9.297;54697.605
544.354;46119.699;  -10.127;53913.914
544.938;44650.109;   -9.267;49680.164
545.523;46348.816;   -6.506;47386.277
546.108;49028.285;   -9.787;49151.949
546.693;51360.328;  -11.587;51384.637
547.278;51493.641;  -10.986;51853.254
547.862;48146.914;   -8.206;51173.750
548.447;43300.219;  -10.067;51691.395
549.031;42558.047;   -9.637;52456.703
549.616;47517.926;   -9.926;52714.516
550.201;46836.957;   -6.347;52414.598
550.785;48060.629;   -7.917;52355.059
551.370;47432.594;  -10.867;54589.453
551.954;47262.293;   -9.047;58267.348
552.538;48034.500;   -7.827;59062.176
553.123;46387.406;  -10.287;58115.285
553.707;44463.129;  -12.178;56556.285
554.291;45704.680;   -8.717;56201.668
554.876;48204.000;   -7.457;55335.762
555.460;48334.324;  -10.387;54155.703
556.044;48959.738;   -9.618;53721.484
556.628;47105.828;  -11.567;53731.016
557.212;45976.957;   -8.097;54312.531
557.796;44656.863;  -11.077;53797.773
558.380;44491.918;  -11.108;56145.984
558.964;44652.641;   -9.057;57277.930
559.548;45487.648;   -6.977;56459.641
560.132;43845.305;  -11.457;54434.543
560.716;42611.953;  -11.378;54800.617
561.300;44000.090;   -9.577;57606.945
561.884;45093.945;   -7.127;58972.445
562.467;43329.180;   -7.118;57327.570
563.051;42237.230;  -13.358;54962.434
563.635;43468.305;  -10.178;52594.473
564.219;44299.328;   -7.837;50610.410
564.802;44950.977;  -11.398;49551.180
565.386;44733.234;  -12.788;48370.953
565.969;44323.027;   -9.077;48178.871
566.553;43431.332;   -6.207;49957.305
567.136;43886.797;   -8.568;50369.594
567.720;40250.402;  -11.868;49492.004
568.303;38189.215;   -8.268;50616.352
568.887;38151.297;   -8.698;50727.148
569.470;38682.727;   -6.808;51698.379
570.053;37716.168;  -13.188;52122.078
570.637;35462.934;  -12.037;52536.438
571.220;34942.719;   -8.577;51186.098
571.803;35710.020;   -8.498;51032.762
572.386;38394.266;  -10.498;49609.887
572.969;40920.313;   -9.388;48285.926
573.552;39119.711;   -8.338;47624.285
574.135;37630.582;   -8.518;45498.641
574.718;34968.645;  -13.628;41970.434
575.301;34027.988;  -10.893;41447.137
575.884;33087.332;   -8.158;40923.836
576.467;34251.855;  -10.328;45267.723
577.050;36029.727;  -13.058;48175.543
577.633;37355.512;   -9.458;47729.328
578.216;36504.094;   -8.928;47579.793
578.799;35567.027;   -9.358;47820.996
579.381;34444.484;  -11.388;48115.551
579.964;32651.906;  -11.718;47333.766
580.547;34380.926;   -8.588;46668.969
581.129;35354.547;   -8.859;44466.141
581.712;36091.246;  -10.729;44164.922
582.294;36556.797;  -11.118;46477.855
582.877;36636.832;   -5.218;48244.254
583.459;34719.691;   -8.679;47437.895
584.042;32645.607;  -10.709;46943.219
584.624;32844.188;  -11.669;46792.227
585.206;32542.033;   -8.218;46557.250
585.789;33064.477;  -10.569;45793.773
586.371;35549.055;  -11.859;43836.391
586.953;36117.398;  -10.719;42972.492
587.536;37006.824;   -7.198;42487.211
588.118;37059.219;   -8.720;42086.414
588.700;33640.422;  -10.439;43389.930
589.282;32780.230;   -9.198;43646.039
589.864;33750.598;   -9.199;43438.109
590.446;34768.121;  -11.319;43151.926
591.028;34316.230;  -11.159;42781.867
591.610;33144.750;  -11.779;42839.098
592.192;30703.578;   -7.668;42820.402
592.774;29467.146;  -11.949;40724.277
593.356;28545.035;  -12.129;39874.789
593.937;27790.803;  -10.669;39980.648
594.519;30107.283;   -6.509;42069.633
595.101;31986.238;  -10.849;42976.031
