
Integration time [ms]:   3.276
Averaging Nr. [scans]: 1000
Smoothing Nr. [pixels]: 0
Data measured with spectrometer [name]: 7414430SP
Wave   ;Sample   ;Dark     ;Reference
[nm]   ;[counts] ;[counts] ;[counts] 

288.544;  151.152;    7.793;  793.890
289.143;  154.262;    7.462;  681.602
289.742;  155.446;    8.602;  828.814
290.341;  140.405;    1.321;  789.841
290.940;  129.731;   -0.709;  730.702
291.538;  130.378;    0.881;  881.108
292.137;  130.804;    0.122;  792.581
292.736;  134.805;   -1.929;  975.101
293.335;  131.885;   -8.229;  735.086
293.934;  131.951;   -5.279;  781.677
294.532;  130.619;   -1.369; 1031.958
295.131;  115.900;   -7.641;  834.394
295.730;  116.936;   -8.420;  809.588
296.328;  116.129;   -5.611;  783.442
296.927;  116.001;   -5.781;  779.652
297.525;  117.643;   -6.361;  781.236
298.124;  107.244;  -11.382;  654.009
298.722;  110.862;   -7.641;  761.933
299.321;  109.545;   -6.811;  708.597
299.919;  106.717;   -6.991;  751.918
300.518;  103.626;  -10.362;  689.338
301.116;  105.482;   -9.581;  691.381
301.715;  105.633;   -4.891;  730.222
302.313;  104.906;   -8.801;  704.943
302.911;  100.410;   -8.522;  733.830
303.509;  104.777;   -6.171;  925.627
304.108;  102.331;   -7.311;  760.383
304.706;  102.562;   -8.321;  801.664
305.304;   96.325;  -10.222;  796.707
305.902;  102.432;   -6.021;  784.484
306.500;   98.299;   -4.971;  728.200
307.098;   95.893;   -7.061;  746.560
307.696;   94.603;   -8.801;  780.432
308.294;   95.401;   -6.411;  731.359
308.892;   96.953;   -2.901;  759.769
309.490;   92.449;   -5.041;  712.161
310.088;   90.569;   -5.002;  788.444
310.686;   95.739;   -2.041;  821.749
311.284;   90.939;   -2.351;  766.040
311.882;   88.512;   -4.422;  731.225
312.480;   85.873;   -4.192;  697.167
313.078;   86.851;   -1.172;  808.331
313.675;   88.182;   -2.601;  691.600
314.273;   83.338;   -1.312;  797.837
314.871;   82.312;   -3.942;  589.829
315.468;   80.218;   -2.802;  652.090
316.066;   83.036;   -0.701;  694.427
316.664;   75.605;   -4.362;  656.351
317.261;   79.830;   -2.872;  910.128
317.859;   75.518;   -2.022;  768.735
318.456;   75.553;   -0.531;  830.096
319.054;   71.392;   -3.912;  787.828
319.651;   71.148;   -4.752;  759.928
320.249;   69.512;   -2.602;  810.188
320.846;   67.581;   -0.821;  714.286
321.443;   64.846;   -4.642;  832.135
322.041;   61.626;   -5.002;  812.315
322.638;   60.295;   -3.982;  701.456
323.235;   60.977;   -3.411;  665.683
323.833;   57.863;   -7.361;  740.354
324.430;   52.912;   -8.611;  615.900
325.027;   54.137;   -4.061;  876.855
325.624;   54.068;   -4.031;  644.532
326.221;   51.485;   -7.481;  689.717
326.818;   51.134;   -5.281;  818.332
327.415;   54.372;   -7.460;  748.828
328.012;   54.443;   -5.510;  690.585
328.609;   51.744;   -7.880;  731.389
329.206;   50.595;   -8.331;  778.621
329.803;   51.246;   -5.121;  737.841
330.400;   53.092;   -4.510;  704.260
330.997;   54.157;   -6.441;  817.147
331.594;   52.894;   -8.831;  788.185
332.191;   58.456;   -7.621;  728.722
332.787;   60.584;   -4.591;  844.463
333.384;   59.675;   -7.412;  763.093
333.981;   58.370;   -8.293;  815.687
334.578;   61.494;   -7.052;  708.378
335.174;   64.452;   -3.102;  731.469
335.771;   63.253;   -5.943;  836.456
336.367;   60.803;   -7.393;  710.631
336.964;   64.090;   -4.063;  793.266
337.561;   61.632;   -3.813;  731.112
338.157;   58.630;   -4.654;  911.916
338.754;   55.191;   -7.934;  796.589
339.350;   53.102;   -4.414;  722.493
339.946;   56.288;   -4.664;  773.135
340.543;   47.103;   -6.375;  846.136
341.139;   41.593;   -9.815;  720.836
341.735;   40.751;   -4.526;  772.593
342.332;   38.892;   -4.895;  691.472
342.928;   38.749;   -4.295;  795.394
343.524;   33.336;   -5.476;  761.684
344.120;   29.730;   -5.856;  738.562
344.716;   31.770;   -2.155;  723.717
345.313;   30.575;   -6.275;  795.342
345.909;   24.907;   -8.815;  627.336
346.505;   26.095;   -5.305;  740.247
347.101;   27.078;   -2.674;  827.864
347.697;   27.916;   -4.344;  785.398
348.293;   22.284;   -9.975;  627.244
348.889;   23.415;   -5.774;  745.914
349.485;   22.413;   -5.004;  688.205
350.081;   23.184;   -4.704;  772.592
350.676;   17.868;   -6.635;  691.606
351.272;   22.613;   -4.504;  809.530
351.868;   21.734;   -3.914;  780.497
352.464;   19.161;   -9.044;  723.932
353.059;   15.507;   -8.314;  646.017
353.655;   18.616;   -7.024;  777.063
354.251;   20.110;   -5.343;  759.845
354.846;   14.575;   -8.604;  740.646
355.442;   12.357;   -6.945;  753.071
356.038;   14.408;   -7.564;  751.708
356.633;   14.068;   -5.814;  728.594
357.229;   12.533;   -7.364;  724.757
357.824;   10.055;   -8.024;  703.600
358.420;   10.435;   -9.384;  679.726
359.015;   10.219;   -5.104;  695.357
359.610;   10.422;   -6.854;  763.920
360.206;    5.172;  -10.185;  603.240
360.801;    8.390;   -7.054;  646.503
361.396;   10.644;   -5.034;  725.975
361.992;    5.715;   -8.284;  668.220
362.587;    3.300;   -8.625;  670.160
363.182;    4.517;   -7.674;  689.631
363.777;    5.926;   -5.164;  738.242
364.372;    5.627;   -8.604;  737.314
364.967;    0.992;   -9.055;  680.744
365.563;    5.989;   -6.114;  815.567
366.158;    2.936;   -5.814;  685.161
366.753;    2.843;   -7.854;  649.263
367.348;    1.413;   -7.804;  746.056
367.942;    1.390;   -7.954;  697.298
368.537;    0.560;   -4.984;  754.245
369.132;    1.016;   -8.564;  703.428
369.727;   -2.802;   -8.855;  638.079
370.322;   -1.772;   -6.245;  580.186
370.917;   -1.973;   -6.425;  710.646
371.511;    0.472;   -6.294;  861.834
372.106;   -3.320;   -7.685;  776.964
372.701;   -5.731;   -7.335;  585.988
373.296;   -0.427;   -4.564;  863.135
373.890;   -5.312;  -10.235;  647.840
374.485;   -7.251;   -7.885;  691.199
375.079;   -3.883;   -7.324;  738.685
375.674;   -2.337;   -3.494;  812.970
376.268;   -6.247;   -8.525;  691.759
376.863;  -12.542;  -10.086;  580.327
377.457;   -6.173;   -7.025;  662.490
378.052;   -7.749;   -3.585;  764.884
378.646;   -9.325;   -7.595;  741.167
379.240;   -9.023;   -8.335;  721.176
379.835;   -7.746;   -5.785;  636.978
380.429;  -10.666;   -4.335;  562.557
381.023;  -10.184;   -6.805;  779.205
381.617;  -13.009;   -9.195;  680.106
382.212;   -9.019;   -6.905;  685.303
382.806;   -8.112;   -3.745;  760.690
383.400;  -12.245;   -7.745;  672.281
383.994;  -13.321;   -9.765;  664.870
384.588;   -9.354;   -6.564;  697.701
385.182;   -7.710;   -5.344;  726.624
385.776;   -9.507;   -8.514;  706.875
386.370;  -12.256;   -9.555;  681.968
386.964;  -12.459;   -8.715;  684.155
387.558;  -10.522;   -6.174;  598.360
388.152;  -13.704;   -8.725;  681.959
388.745;  -11.660;   -7.965;  814.707
389.339;  -10.127;   -5.924;  747.642
389.933;   -9.223;   -5.524;  695.370
390.527;  -10.469;   -7.114;  859.029
391.120;  -16.576;  -10.725;  595.318
391.714;  -13.522;   -8.035;  711.633
392.308;  -10.829;   -3.574;  780.253
392.901;  -13.912;   -7.245;  642.460
393.495;  -16.345;   -9.285;  595.414
394.089;  -14.067;   -5.895;  760.452
394.682;  -14.508;   -4.295;  697.188
395.275;  -15.769;   -9.875;  719.927
395.869;  -15.982;   -8.485;  667.314
396.462;  -14.079;   -7.455;  616.609
397.056;  -10.570;   -5.424;  776.621
397.649;  -16.301;   -6.605;  731.575
398.242;  -13.308;   -8.224;  712.645
398.836;  -11.851;   -7.474;  766.408
399.429;  -12.855;   -7.094;  631.041
400.022;  -17.397;   -9.475;  665.902
400.615;  -14.274;   -7.145;  805.609
401.208;  -11.738;   -7.174;  691.451
401.802;  -14.937;   -5.515;  699.329
402.395;  -15.835;   -9.875;  683.502
402.988;  -16.551;   -8.845;  696.627
403.581;  -13.282;   -8.874;  646.878
404.174;  -11.392;   -5.324;  686.568
404.767;  -14.653;   -9.575;  638.583
405.360;  -16.536;  -10.965;  621.445
405.953;  -10.958;   -8.764;  759.034
406.545;  -11.263;   -7.514;  725.342
407.138;  -14.529;  -10.025;  618.350
407.731;  -13.323;  -10.034;  613.303
408.324;  -10.322;   -9.374;  660.554
408.917;  -11.235;   -6.534;  681.864
409.509;  -13.583;   -8.004;  740.396
410.102;  -14.787;   -9.875;  643.948
410.695;   -9.071;   -8.604;  665.758
411.287;   -9.663;   -6.794;  599.821
411.880;  -11.569;   -9.334;  585.421
412.472;  -13.698;  -10.254;  613.092
413.065;  -11.178;   -6.714;  629.408
413.657;   -8.667;   -7.234;  576.678
414.250;   -9.171;  -10.544;  646.681
414.842;  -10.621;   -9.744;  676.353
415.434;   -8.178;   -6.994;  570.463
416.027;   -4.406;   -5.893;  652.196
416.619;   -6.080;   -7.264;  713.400
417.211;   -6.871;  -10.374;  599.352
417.804;   -3.562;   -7.993;  628.499
418.396;   -7.693;   -7.234;  607.643
418.988;   -5.097;   -9.443;  659.238
419.580;   -7.975;  -10.724;  568.276
420.172;   -6.182;  -10.323;  536.196
420.764;   -2.229;   -8.793;  672.482
421.356;   -3.361;  -11.143;  636.898
421.948;   -4.209;   -8.293;  677.661
422.540;    1.168;   -7.893;  680.027
423.132;    0.061;   -7.082;  600.641
423.724;   -3.112;   -8.653;  561.267
424.316;   -1.200;  -10.213;  621.345
424.908;    2.239;   -9.762;  591.517
425.500;    3.384;   -5.572;  647.978
426.092;    3.399;   -8.422;  648.268
426.683;    2.887;   -9.283;  684.836
427.275;    5.160;   -7.852;  641.471
427.867;    6.815;   -5.272;  668.948
428.458;    7.095;   -7.682;  732.344
429.050;    5.071;  -10.612;  680.749
429.642;    7.695;   -9.882;  743.124
430.233;    8.342;   -6.962;  569.356
430.825;    9.582;   -6.842;  724.809
431.416;    6.360;   -9.672;  698.241
432.008;   10.980;   -6.552;  651.723
432.599;   11.359;   -6.891;  656.073
433.190;    7.987;  -10.912;  637.670
433.782;    7.540;  -11.172;  590.395
434.373;   14.918;   -6.061;  884.765
434.964;   13.857;   -8.251;  602.920
435.556;   11.300;   -9.722;  634.537
436.147;   14.312;   -9.082;  758.490
436.738;   14.535;   -8.041;  701.099
437.329;   19.429;   -7.341;  721.723
437.920;   11.980;   -8.162;  666.688
438.511;   11.941;  -11.802;  564.526
439.103;   19.391;  -10.191;  623.998
439.694;   20.226;   -7.601;  681.583
440.285;   21.617;   -8.541;  764.432
440.876;   19.690;   -9.751;  845.738
441.466;   19.057;   -9.401;  575.162
442.057;   24.110;   -7.760;  665.814
442.648;   23.650;   -9.971;  746.255
443.239;   20.783;  -11.001;  620.477
443.830;   26.810;   -7.990;  704.958
444.421;   28.459;   -7.910;  655.474
445.011;   24.709;   -8.131;  693.619
445.602;   24.838;   -7.111;  743.126
446.193;   25.929;  -10.920;  488.117
446.783;   30.878;   -6.500;  640.397
447.374;   25.994;   -8.671;  692.759
447.964;   26.422;  -10.781;  713.770
448.555;   35.180;   -9.650;  822.742
449.145;   31.809;   -8.660;  662.853
449.736;   33.172;   -8.990;  803.179
450.326;   32.769;   -9.500;  713.626
450.917;   37.319;   -8.680;  675.324
451.507;   35.771;   -7.520;  600.661
452.097;   37.038;   -8.590;  746.267
452.688;   37.710;  -11.340;  742.160
453.278;   38.051;  -10.100;  566.840
453.868;   41.770;   -6.019;  793.550
454.458;   39.623;   -9.440;  651.141
455.048;   40.397;  -10.560;  711.783
455.639;   42.172;  -11.799;  567.096
456.229;   45.739;   -6.899;  710.694
456.819;   47.366;   -7.389;  751.158
457.409;   46.982;  -11.119;  773.993
457.999;   50.713;   -9.289;  737.505
458.589;   49.905;   -6.139;  686.606
459.179;   49.807;   -8.729;  717.658
459.769;   48.393;   -9.789;  627.099
460.358;   52.925;  -10.259;  797.262
460.948;   53.857;   -7.299;  689.503
461.538;   54.680;  -10.289;  660.677
462.128;   52.149;  -11.269;  664.934
462.717;   59.365;   -9.368;  710.326
463.307;   62.019;   -7.908;  705.846
463.897;   57.822;   -9.599;  656.942
464.486;   56.887;   -9.769;  837.128
465.076;   61.926;   -8.048;  733.776
465.666;   66.102;   -9.358;  652.900
466.255;   62.409;   -7.919;  785.651
466.845;   62.345;  -11.689;  666.749
467.434;   64.953;   -7.818;  725.873
468.023;   66.563;   -7.678;  658.357
468.613;   63.689;  -10.939;  713.946
469.202;   67.981;  -10.118;  646.507
469.791;   71.791;   -9.108;  737.811
470.381;   74.266;   -6.058;  742.813
470.970;   73.744;  -10.428;  711.099
471.559;   73.905;  -10.268;  733.291
472.148;   76.913;   -8.448;  675.737
472.738;   79.222;   -6.917;  765.466
473.327;   78.090;  -11.978;  637.529
473.916;   78.445;  -11.888;  737.446
474.505;   82.428;   -9.437;  751.703
475.094;   85.352;   -6.747;  806.570
475.683;   84.484;   -9.367;  797.699
476.272;   85.084;  -12.637;  730.632
476.861;   87.949;  -10.027;  706.754
477.449;   95.163;   -8.716;  728.487
478.038;   89.856;   -9.577;  692.513
478.627;   90.035;   -9.718;  714.852
479.216;   97.191;   -8.947;  769.441
479.805;  100.015;   -6.256;  783.375
480.393;   99.196;   -7.937; 1008.945
480.982;   98.586;   -7.717;  874.501
481.571;  105.466;   -9.266;  858.333
482.159;  106.127;   -7.636;  705.386
482.748;  104.988;   -9.667;  821.385
483.336;  110.313;  -10.376;  858.209
483.925;  110.087;   -7.147;  774.373
484.513;  117.056;   -7.996;  758.962
485.102;  113.150;  -10.027;  810.965
485.690;  122.243;  -10.446; 1011.050
486.278;  124.296;   -8.446;  979.329
486.867;  124.619;   -6.356;  809.662
487.455;  126.487;   -9.136;  898.229
488.043;  127.285;  -10.646;  748.361
488.631;  136.776;   -7.456; 1005.079
489.220;  140.350;   -6.636;  908.626
489.808;  140.462;  -11.036;  741.415
490.396;  149.405;  -10.246;  914.645
490.984;  154.671;   -8.556;  830.161
491.572;  164.357;   -5.886;  940.315
492.160;  170.060;   -9.486;  919.081
492.748;  182.676;  -10.976;  884.341
493.336;  205.259;   -8.776; 1019.693
493.924;  231.225;   -5.465;  958.077
494.512;  259.541;   -9.986; 1066.638
495.100;  296.134;  -10.636; 1103.280
495.687;  348.321;  -10.885; 1206.373
496.275;  408.649;   -8.126; 1150.796
496.863;  474.012;  -10.586; 1281.171
497.451;  569.392;  -11.926; 1386.805
498.038;  700.398;  -10.885; 1556.729
498.626;  805.568;   -6.315; 1741.407
499.214;  945.564;   -7.326; 2016.609
499.801; 1127.169;  -11.906; 2220.633
500.389; 1367.966;  -10.466; 2312.494
500.976; 1668.469;   -5.236; 2744.849
501.564; 2076.865;   -8.936; 3148.565
502.151; 2428.421;  -13.176; 3515.999
502.738; 2847.677;  -10.646; 3971.274
503.326; 3224.315;   -9.525; 4403.796
503.913; 3587.226;  -10.856; 5161.749
504.500; 3900.426;  -11.586; 5986.420
505.088; 4322.149;  -10.336; 6381.201
505.675; 4830.032;   -6.355; 6925.547
506.262; 5448.723;   -9.046; 7619.060
506.849; 6118.899;  -10.416; 8733.969
507.436; 6590.338;  -10.305; 9790.121
508.023; 7157.112;   -5.496; 9985.472
508.610; 7396.868;   -7.856;10434.618
509.197; 7992.762;  -10.097;11198.435
509.784; 9301.415;  -10.886;12391.194
510.371;10285.211;   -9.315;13603.713
510.958;10980.271;   -9.936;14426.586
511.545;11693.760;   -9.326;15243.775
512.132;12599.548;  -10.075;15945.876
512.719;13160.121;   -7.796;16340.369
513.305;14022.659;  -10.606;18011.766
513.892;14746.391;  -11.486;19754.971
514.479;16033.737;   -9.126;20967.805
515.066;17534.811;   -6.026;22299.793
515.652;18673.840;   -8.466;22908.660
516.239;19791.141;  -10.886;23798.875
516.825;20817.105;  -11.496;25567.275
517.412;21717.775;   -5.796;28154.959
517.998;22523.002;  -10.506;28344.111
518.585;22680.467;  -10.076;27134.219
519.171;22983.008;   -8.315;27268.576
519.758;24118.449;   -8.596;28964.129
520.344;26013.379;   -8.466;30664.494
520.930;26277.488;  -11.006;32550.605
521.516;27481.561;  -10.495;35422.895
522.103;29808.426;   -5.526;38280.004
522.689;30492.850;   -8.746;37835.117
523.275;30215.785;  -11.376;37288.613
523.861;31303.441;  -11.156;37281.395
524.447;32404.816;   -8.135;37846.949
525.033;31645.373;   -7.896;38321.949
525.619;31555.611;  -12.476;38579.285
526.205;32687.371;   -9.516;40622.875
526.791;34557.375;   -6.926;42258.836
527.377;32788.098;   -8.346;42966.902
527.963;32265.711;   -8.717;42018.949
528.549;31989.764;  -11.016;42476.828
529.135;33419.930;   -8.536;41854.852
529.721;35191.586;   -9.666;41237.711
530.306;35652.879;  -10.066;41259.445
530.892;35776.758;  -11.356;41506.047
531.478;37132.355;   -6.596;43559.613
532.063;39565.211;   -8.836;47695.563
532.649;40013.363;  -10.047;50808.324
533.235;40832.352;   -9.746;51787.500
533.820;41508.883;   -6.566;52145.035
534.406;42444.574;  -10.817;51133.488
534.991;41964.258;   -9.416;49996.805
535.576;40483.477;   -9.036;48882.852
536.162;40732.625;   -6.156;46942.285
536.747;41359.906;  -11.607;45711.746
537.333;43588.695;  -11.787;48510.180
537.918;44896.949;  -12.437;50439.891
538.503;41256.066;   -7.196;50863.711
539.088;36545.129;  -10.556;50906.922
539.673;36936.719;   -8.767;52621.965
540.259;39435.691;  -10.026;52368.094
540.844;40134.566;   -7.416;50879.109
541.429;43320.777;   -9.467;52077.777
542.014;47845.625;   -9.527;52716.695
542.599;48138.191;   -9.946;52363.281
543.184;45275.957;   -7.927;53187.137
543.769;46246.734;   -9.297;54697.605
544.354;45775.492;  -10.127;53913.914
544.938;44700.391;   -9.267;49680.164
545.523;46822.426;   -6.506;47386.277
546.108;49170.121;   -9.787;49151.949
546.693;51353.289;  -11.587;51384.637
547.278;51317.535;  -10.986;51853.254
547.862;48232.227;   -8.206;51173.750
548.447;43585.508;  -10.067;51691.395
549.031;42876.605;   -9.637;52456.703
549.616;47565.918;   -9.926;52714.516
550.201;46808.547;   -6.347;52414.598
550.785;47618.617;   -7.917;52355.059
551.370;47004.434;  -10.867;54589.453
551.954;47040.898;   -9.047;58267.348
552.538;48307.246;   -7.827;59062.176
553.123;46494.625;  -10.287;58115.285
553.707;43902.066;  -12.178;56556.285
554.291;44674.707;   -8.717;56201.668
554.876;46741.980;   -7.457;55335.762
555.460;47415.129;  -10.387;54155.703
556.044;49174.770;   -9.618;53721.484
556.628;47532.980;  -11.567;53731.016
557.212;46070.891;   -8.097;54312.531
557.796;43873.727;  -11.077;53797.773
558.380;44104.574;  -11.108;56145.984
558.964;45088.773;   -9.057;57277.930
559.548;46310.602;   -6.977;56459.641
560.132;44222.992;  -11.457;54434.543
560.716;42832.141;  -11.378;54800.617
561.300;43712.613;   -9.577;57606.945
561.884;44680.992;   -7.127;58972.445
562.467;43175.727;   -7.118;57327.570
563.051;42756.602;  -13.358;54962.434
563.635;43609.965;  -10.178;52594.473
564.219;43733.750;   -7.837;50610.410
564.802;44305.922;  -11.398;49551.180
565.386;44542.547;  -12.788;48370.953
565.969;44389.273;   -9.077;48178.871
566.553;43099.914;   -6.207;49957.305
567.136;43442.754;   -8.568;50369.594
567.720;39872.957;  -11.868;49492.004
568.303;38059.629;   -8.268;50616.352
568.887;37977.793;   -8.698;50727.148
569.470;38184.352;   -6.808;51698.379
570.053;37442.832;  -13.188;52122.078
570.637;35727.980;  -12.037;52536.438
571.220;35072.191;   -8.577;51186.098
571.803;35412.332;   -8.498;51032.762
572.386;37459.227;  -10.498;49609.887
572.969;39991.410;   -9.388;48285.926
573.552;38552.762;   -8.338;47624.285
574.135;37331.938;   -8.518;45498.641
574.718;34977.926;  -13.628;41970.434
575.301;33869.250;  -10.893;41447.137
575.884;32760.570;   -8.158;40923.836
576.467;33898.184;  -10.328;45267.723
577.050;35815.453;  -13.058;48175.543
577.633;37586.848;   -9.458;47729.328
578.216;36701.117;   -8.928;47579.793
578.799;35564.098;   -9.358;47820.996
579.381;34258.309;  -11.388;48115.551
579.964;32427.652;  -11.718;47333.766
580.547;33881.828;   -8.588;46668.969
581.129;34861.773;   -8.859;44466.141
581.712;35609.402;  -10.729;44164.922
582.294;36407.230;  -11.118;46477.855
582.877;36496.523;   -5.218;48244.254
583.459;34425.977;   -8.679;47437.895
584.042;32578.029;  -10.709;46943.219
584.624;32826.996;  -11.669;46792.227
585.206;32297.391;   -8.218;46557.250
585.789;32342.865;  -10.569;45793.773
586.371;35181.816;  -11.859;43836.391
586.953;36205.660;  -10.719;42972.492
587.536;37041.137;   -7.198;42487.211
588.118;37260.754;   -8.720;42086.414
588.700;33536.180;  -10.439;43389.930
589.282;32508.074;   -9.198;43646.039
589.864;33207.691;   -9.199;43438.109
590.446;34312.273;  -11.319;43151.926
591.028;34324.172;  -11.159;42781.867
591.610;33311.219;  -11.779;42839.098
592.192;30463.910;   -7.668;42820.402
592.774;28961.432;  -11.949;40724.277
593.356;27884.938;  -12.129;39874.789
593.937;27304.963;  -10.669;39980.648
594.519;29232.951;   -6.509;42069.633
595.101;31391.813;  -10.849;42976.031
