
Integration time [ms]:   3.276
Averaging Nr. [scans]: 1000
Smoothing Nr. [pixels]: 0
Data measured with spectrometer [name]: 7414430SP
Wave   ;Sample   ;Dark     ;Reference
[nm]   ;[counts] ;[counts] ;[counts] 

288.544;  151.454;    7.793;  793.890
289.143;  155.416;    7.462;  681.602
289.742;  155.156;    8.602;  828.814
290.341;  140.605;    1.321;  789.841
290.940;  129.875;   -0.709;  730.702
291.538;  131.028;    0.881;  881.108
292.137;  131.560;    0.122;  792.581
292.736;  135.406;   -1.929;  975.101
293.335;  132.124;   -8.229;  735.086
293.934;  132.081;   -5.279;  781.677
294.532;  130.172;   -1.369; 1031.958
295.131;  117.796;   -7.641;  834.394
295.730;  117.307;   -8.420;  809.588
296.328;  116.094;   -5.611;  783.442
296.927;  116.341;   -5.781;  779.652
297.525;  117.311;   -6.361;  781.236
298.124;  108.083;  -11.382;  654.009
298.722;  111.334;   -7.641;  761.933
299.321;  109.831;   -6.811;  708.597
299.919;  107.646;   -6.991;  751.918
300.518;  104.854;  -10.362;  689.338
301.116;  107.176;   -9.581;  691.381
301.715;  105.535;   -4.891;  730.222
302.313;  105.728;   -8.801;  704.943
302.911;  100.664;   -8.522;  733.830
303.509;  105.159;   -6.171;  925.627
304.108;  103.621;   -7.311;  760.383
304.706;  103.062;   -8.321;  801.664
305.304;   97.741;  -10.222;  796.707
305.902;  101.856;   -6.021;  784.484
306.500;   97.476;   -4.971;  728.200
307.098;   96.596;   -7.061;  746.560
307.696;   94.909;   -8.801;  780.432
308.294;   95.342;   -6.411;  731.359
308.892;   97.470;   -2.901;  759.769
309.490;   93.291;   -5.041;  712.161
310.088;   92.245;   -5.002;  788.444
310.686;   96.451;   -2.041;  821.749
311.284;   91.658;   -2.351;  766.040
311.882;   89.664;   -4.422;  731.225
312.480;   87.062;   -4.192;  697.167
313.078;   88.393;   -1.172;  808.331
313.675;   88.510;   -2.601;  691.600
314.273;   83.727;   -1.312;  797.837
314.871;   83.888;   -3.942;  589.829
315.468;   81.297;   -2.802;  652.090
316.066;   84.311;   -0.701;  694.427
316.664;   76.555;   -4.362;  656.351
317.261;   81.637;   -2.872;  910.128
317.859;   76.251;   -2.022;  768.735
318.456;   77.209;   -0.531;  830.096
319.054;   72.468;   -3.912;  787.828
319.651;   71.757;   -4.752;  759.928
320.249;   70.876;   -2.602;  810.188
320.846;   68.420;   -0.821;  714.286
321.443;   66.002;   -4.642;  832.135
322.041;   62.343;   -5.002;  812.315
322.638;   60.964;   -3.982;  701.456
323.235;   61.189;   -3.411;  665.683
323.833;   59.490;   -7.361;  740.354
324.430;   54.318;   -8.611;  615.900
325.027;   55.273;   -4.061;  876.855
325.624;   55.595;   -4.031;  644.532
326.221;   52.412;   -7.481;  689.717
326.818;   51.827;   -5.281;  818.332
327.415;   55.933;   -7.460;  748.828
328.012;   54.366;   -5.510;  690.585
328.609;   53.881;   -7.880;  731.389
329.206;   51.262;   -8.331;  778.621
329.803;   51.801;   -5.121;  737.841
330.400;   54.824;   -4.510;  704.260
330.997;   55.714;   -6.441;  817.147
331.594;   54.040;   -8.831;  788.185
332.191;   59.636;   -7.621;  728.722
332.787;   62.512;   -4.591;  844.463
333.384;   60.654;   -7.412;  763.093
333.981;   60.009;   -8.293;  815.687
334.578;   62.373;   -7.052;  708.378
335.174;   65.219;   -3.102;  731.469
335.771;   65.430;   -5.943;  836.456
336.367;   62.340;   -7.393;  710.631
336.964;   65.463;   -4.063;  793.266
337.561;   63.421;   -3.813;  731.112
338.157;   58.631;   -4.654;  911.916
338.754;   57.060;   -7.934;  796.589
339.350;   55.280;   -4.414;  722.493
339.946;   57.091;   -4.664;  773.135
340.543;   48.223;   -6.375;  846.136
341.139;   43.557;   -9.815;  720.836
341.735;   41.538;   -4.526;  772.593
342.332;   39.627;   -4.895;  691.472
342.928;   40.421;   -4.295;  795.394
343.524;   33.987;   -5.476;  761.684
344.120;   31.065;   -5.856;  738.562
344.716;   33.591;   -2.155;  723.717
345.313;   32.158;   -6.275;  795.342
345.909;   26.360;   -8.815;  627.336
346.505;   27.537;   -5.305;  740.247
347.101;   29.193;   -2.674;  827.864
347.697;   29.231;   -4.344;  785.398
348.293;   23.389;   -9.975;  627.244
348.889;   24.649;   -5.774;  745.914
349.485;   23.996;   -5.004;  688.205
350.081;   24.596;   -4.704;  772.592
350.676;   20.077;   -6.635;  691.606
351.272;   23.947;   -4.504;  809.530
351.868;   23.660;   -3.914;  780.497
352.464;   20.890;   -9.044;  723.932
353.059;   17.876;   -8.314;  646.017
353.655;   20.422;   -7.024;  777.063
354.251;   21.668;   -5.343;  759.845
354.846;   17.063;   -8.604;  740.646
355.442;   14.588;   -6.945;  753.071
356.038;   16.014;   -7.564;  751.708
356.633;   16.304;   -5.814;  728.594
357.229;   14.019;   -7.364;  724.757
357.824;   13.101;   -8.024;  703.600
358.420;   12.535;   -9.384;  679.726
359.015;   11.608;   -5.104;  695.357
359.610;   13.507;   -6.854;  763.920
360.206;    7.629;  -10.185;  603.240
360.801;   10.364;   -7.054;  646.503
361.396;   12.033;   -5.034;  725.975
361.992;    7.361;   -8.284;  668.220
362.587;    5.022;   -8.625;  670.160
363.182;    6.879;   -7.674;  689.631
363.777;    7.929;   -5.164;  738.242
364.372;    8.002;   -8.604;  737.314
364.967;    3.685;   -9.055;  680.744
365.563;    7.452;   -6.114;  815.567
366.158;    5.159;   -5.814;  685.161
366.753;    5.368;   -7.854;  649.263
367.348;    4.272;   -7.804;  746.056
367.942;    4.074;   -7.954;  697.298
368.537;    2.264;   -4.984;  754.245
369.132;    2.826;   -8.564;  703.428
369.727;   -1.142;   -8.855;  638.079
370.322;    0.708;   -6.245;  580.186
370.917;   -0.117;   -6.425;  710.646
371.511;    2.841;   -6.294;  861.834
372.106;   -0.024;   -7.685;  776.964
372.701;   -3.857;   -7.335;  585.988
373.296;    2.170;   -4.564;  863.135
373.890;   -3.613;  -10.235;  647.840
374.485;   -5.048;   -7.885;  691.199
375.079;   -1.513;   -7.324;  738.685
375.674;   -0.188;   -3.494;  812.970
376.268;   -4.667;   -8.525;  691.759
376.863;   -9.296;  -10.086;  580.327
377.457;   -4.048;   -7.025;  662.490
378.052;   -5.224;   -3.585;  764.884
378.646;   -6.233;   -7.595;  741.167
379.240;   -6.320;   -8.335;  721.176
379.835;   -6.096;   -5.785;  636.978
380.429;   -7.574;   -4.335;  562.557
381.023;   -7.686;   -6.805;  779.205
381.617;   -9.650;   -9.195;  680.106
382.212;   -6.344;   -6.905;  685.303
382.806;   -5.698;   -3.745;  760.690
383.400;   -9.641;   -7.745;  672.281
383.994;  -10.438;   -9.765;  664.870
384.588;   -5.829;   -6.564;  697.701
385.182;   -5.970;   -5.344;  726.624
385.776;   -7.577;   -8.514;  706.875
386.370;  -10.307;   -9.555;  681.968
386.964;   -9.357;   -8.715;  684.155
387.558;   -7.467;   -6.174;  598.360
388.152;  -10.717;   -8.725;  681.959
388.745;   -9.006;   -7.965;  814.707
389.339;   -7.377;   -5.924;  747.642
389.933;   -6.918;   -5.524;  695.370
390.527;   -7.441;   -7.114;  859.029
391.120;  -13.486;  -10.725;  595.318
391.714;  -10.697;   -8.035;  711.633
392.308;   -7.542;   -3.574;  780.253
392.901;  -11.444;   -7.245;  642.460
393.495;  -13.235;   -9.285;  595.414
394.089;  -11.116;   -5.895;  760.452
394.682;  -11.082;   -4.295;  697.188
395.275;  -11.891;   -9.875;  719.927
395.869;  -13.680;   -8.485;  667.314
396.462;  -12.415;   -7.455;  616.609
397.056;   -7.948;   -5.424;  776.621
397.649;  -12.475;   -6.605;  731.575
398.242;   -9.380;   -8.224;  712.645
398.836;   -8.096;   -7.474;  766.408
399.429;  -10.965;   -7.094;  631.041
400.022;  -13.574;   -9.475;  665.902
400.615;  -11.452;   -7.145;  805.609
401.208;   -9.171;   -7.174;  691.451
401.802;  -11.319;   -5.515;  699.329
402.395;  -12.631;   -9.875;  683.502
402.988;  -13.424;   -8.845;  696.627
403.581;   -9.605;   -8.874;  646.878
404.174;   -8.368;   -5.324;  686.568
404.767;  -10.715;   -9.575;  638.583
405.360;  -13.131;  -10.965;  621.445
405.953;   -8.043;   -8.764;  759.034
406.545;   -7.460;   -7.514;  725.342
407.138;  -11.536;  -10.025;  618.350
407.731;  -10.101;  -10.034;  613.303
408.324;   -6.163;   -9.374;  660.554
408.917;   -7.374;   -6.534;  681.864
409.509;   -9.107;   -8.004;  740.396
410.102;  -10.452;   -9.875;  643.948
410.695;   -5.341;   -8.604;  665.758
411.287;   -6.370;   -6.794;  599.821
411.880;   -7.268;   -9.334;  585.421
412.472;  -10.466;  -10.254;  613.092
413.065;   -7.924;   -6.714;  629.408
413.657;   -4.591;   -7.234;  576.678
414.250;   -5.627;  -10.544;  646.681
414.842;   -6.922;   -9.744;  676.353
415.434;   -4.164;   -6.994;  570.463
416.027;   -0.501;   -5.893;  652.196
416.619;   -2.613;   -7.264;  713.400
417.211;   -2.720;  -10.374;  599.352
417.804;   -0.035;   -7.993;  628.499
418.396;   -3.769;   -7.234;  607.643
418.988;   -1.488;   -9.443;  659.238
419.580;   -4.354;  -10.724;  568.276
420.172;   -2.687;  -10.323;  536.196
420.764;    2.296;   -8.793;  672.482
421.356;    0.758;  -11.143;  636.898
421.948;   -0.297;   -8.293;  677.661
422.540;    4.876;   -7.893;  680.027
423.132;    4.736;   -7.082;  600.641
423.724;    0.709;   -8.653;  561.267
424.316;    2.438;  -10.213;  621.345
424.908;    6.205;   -9.762;  591.517
425.500;    7.006;   -5.572;  647.978
426.092;    7.469;   -8.422;  648.268
426.683;    6.803;   -9.283;  684.836
427.275;    8.842;   -7.852;  641.471
427.867;   11.599;   -5.272;  668.948
428.458;   11.840;   -7.682;  732.344
429.050;   10.139;  -10.612;  680.749
429.642;   12.481;   -9.882;  743.124
430.233;   12.722;   -6.962;  569.356
430.825;   13.793;   -6.842;  724.809
431.416;   11.604;   -9.672;  698.241
432.008;   14.943;   -6.552;  651.723
432.599;   16.091;   -6.891;  656.073
433.190;   12.310;  -10.912;  637.670
433.782;   12.104;  -11.172;  590.395
434.373;   19.593;   -6.061;  884.765
434.964;   18.018;   -8.251;  602.920
435.556;   15.558;   -9.722;  634.537
436.147;   19.685;   -9.082;  758.490
436.738;   19.135;   -8.041;  701.099
437.329;   24.184;   -7.341;  721.723
437.920;   17.704;   -8.162;  666.688
438.511;   17.992;  -11.802;  564.526
439.103;   23.520;  -10.191;  623.998
439.694;   24.921;   -7.601;  681.583
440.285;   26.450;   -8.541;  764.432
440.876;   24.753;   -9.751;  845.738
441.466;   24.717;   -9.401;  575.162
442.057;   28.716;   -7.760;  665.814
442.648;   28.316;   -9.971;  746.255
443.239;   26.442;  -11.001;  620.477
443.830;   31.140;   -7.990;  704.958
444.421;   32.928;   -7.910;  655.474
445.011;   29.983;   -8.131;  693.619
445.602;   30.182;   -7.111;  743.126
446.193;   30.924;  -10.920;  488.117
446.783;   36.059;   -6.500;  640.397
447.374;   31.581;   -8.671;  692.759
447.964;   31.623;  -10.781;  713.770
448.555;   39.818;   -9.650;  822.742
449.145;   36.485;   -8.660;  662.853
449.736;   38.114;   -8.990;  803.179
450.326;   38.641;   -9.500;  713.626
450.917;   42.567;   -8.680;  675.324
451.507;   41.736;   -7.520;  600.661
452.097;   42.426;   -8.590;  746.267
452.688;   44.150;  -11.340;  742.160
453.278;   43.289;  -10.100;  566.840
453.868;   48.572;   -6.019;  793.550
454.458;   45.503;   -9.440;  651.141
455.048;   46.542;  -10.560;  711.783
455.639;   48.392;  -11.799;  567.096
456.229;   51.849;   -6.899;  710.694
456.819;   53.391;   -7.389;  751.158
457.409;   53.788;  -11.119;  773.993
457.999;   56.886;   -9.289;  737.505
458.589;   56.682;   -6.139;  686.606
459.179;   56.733;   -8.729;  717.658
459.769;   54.910;   -9.789;  627.099
460.358;   59.421;  -10.259;  797.262
460.948;   59.473;   -7.299;  689.503
461.538;   61.680;  -10.289;  660.677
462.128;   58.734;  -11.269;  664.934
462.717;   65.860;   -9.368;  710.326
463.307;   68.703;   -7.908;  705.846
463.897;   64.859;   -9.599;  656.942
464.486;   64.364;   -9.769;  837.128
465.076;   68.177;   -8.048;  733.776
465.666;   72.023;   -9.358;  652.900
466.255;   70.102;   -7.919;  785.651
466.845;   69.417;  -11.689;  666.749
467.434;   72.274;   -7.818;  725.873
468.023;   72.611;   -7.678;  658.357
468.613;   71.444;  -10.939;  713.946
469.202;   75.228;  -10.118;  646.507
469.791;   78.528;   -9.108;  737.811
470.381;   81.223;   -6.058;  742.813
470.970;   80.599;  -10.428;  711.099
471.559;   80.653;  -10.268;  733.291
472.148;   84.360;   -8.448;  675.737
472.738;   86.869;   -6.917;  765.466
473.327;   86.610;  -11.978;  637.529
473.916;   86.352;  -11.888;  737.446
474.505;   90.765;   -9.437;  751.703
475.094;   93.532;   -6.747;  806.570
475.683;   92.794;   -9.367;  797.699
476.272;   93.718;  -12.637;  730.632
476.861;   97.430;  -10.027;  706.754
477.449;  102.913;   -8.716;  728.487
478.038;   97.334;   -9.577;  692.513
478.627;   99.216;   -9.718;  714.852
479.216;  105.872;   -8.947;  769.441
479.805;  108.173;   -6.256;  783.375
480.393;  109.144;   -7.937; 1008.945
480.982;  107.711;   -7.717;  874.501
481.571;  113.579;   -9.266;  858.333
482.159;  114.221;   -7.636;  705.386
482.748;  114.779;   -9.667;  821.385
483.336;  119.266;  -10.376;  858.209
483.925;  120.187;   -7.147;  774.373
484.513;  127.188;   -7.996;  758.962
485.102;  123.648;  -10.027;  810.965
485.690;  132.127;  -10.446; 1011.050
486.278;  134.498;   -8.446;  979.329
486.867;  135.641;   -6.356;  809.662
487.455;  137.501;   -9.136;  898.229
488.043;  138.931;  -10.646;  748.361
488.631;  147.886;   -7.456; 1005.079
489.220;  151.644;   -6.636;  908.626
489.808;  153.558;  -11.036;  741.415
490.396;  161.464;  -10.246;  914.645
490.984;  167.065;   -8.556;  830.161
491.572;  178.223;   -5.886;  940.315
492.160;  184.293;   -9.486;  919.081
492.748;  200.022;  -10.976;  884.341
493.336;  223.366;   -8.776; 1019.693
493.924;  251.862;   -5.465;  958.077
494.512;  284.566;   -9.986; 1066.638
495.100;  324.749;  -10.636; 1103.280
495.687;  379.317;  -10.885; 1206.373
496.275;  445.927;   -8.126; 1150.796
496.863;  516.909;  -10.586; 1281.171
497.451;  618.984;  -11.926; 1386.805
498.038;  764.635;  -10.885; 1556.729
498.626;  880.927;   -6.315; 1741.407
499.214; 1040.451;   -7.326; 2016.609
499.801; 1237.517;  -11.906; 2220.633
500.389; 1501.428;  -10.466; 2312.494
500.976; 1821.273;   -5.236; 2744.849
501.564; 2273.760;   -8.936; 3148.565
502.151; 2650.906;  -13.176; 3515.999
502.738; 3099.181;  -10.646; 3971.274
503.326; 3517.232;   -9.525; 4403.796
503.913; 3924.836;  -10.856; 5161.749
504.500; 4272.750;  -11.586; 5986.420
505.088; 4732.179;  -10.336; 6381.201
505.675; 5283.231;   -6.355; 6925.547
506.262; 5949.032;   -9.046; 7619.060
506.849; 6686.187;  -10.416; 8733.969
507.436; 7217.744;  -10.305; 9790.121
508.023; 7846.618;   -5.496; 9985.472
508.610; 8123.584;   -7.856;10434.618
509.197; 8821.668;  -10.097;11198.435
509.784;10255.344;  -10.886;12391.194
510.371;11368.901;   -9.315;13603.713
510.958;12165.354;   -9.936;14426.586
511.545;12946.929;   -9.326;15243.775
512.132;13820.648;  -10.075;15945.876
512.719;14344.638;   -7.796;16340.369
513.305;15320.984;  -10.606;18011.766
513.892;16044.755;  -11.486;19754.971
514.479;17464.309;   -9.126;20967.805
515.066;19263.201;   -6.026;22299.793
515.652;20700.877;   -8.466;22908.660
516.239;21882.061;  -10.886;23798.875
516.825;22899.236;  -11.496;25567.275
517.412;23813.115;   -5.796;28154.959
517.998;24689.285;  -10.506;28344.111
518.585;24992.744;  -10.076;27134.219
519.171;25394.047;   -8.315;27268.576
519.758;26616.879;   -8.596;28964.129
520.344;28774.576;   -8.466;30664.494
520.930;29206.143;  -11.006;32550.605
521.516;30452.527;  -10.495;35422.895
522.103;32951.805;   -5.526;38280.004
522.689;33626.238;   -8.746;37835.117
523.275;33429.066;  -11.376;37288.613
523.861;35071.598;  -11.156;37281.395
524.447;36548.555;   -8.135;37846.949
525.033;35943.566;   -7.896;38321.949
525.619;35957.742;  -12.476;38579.285
526.205;37528.129;   -9.516;40622.875
526.791;40773.898;   -6.926;42258.836
527.377;41074.012;   -8.346;42966.902
527.963;42688.121;   -8.717;42018.949
528.549;41633.066;  -11.016;42476.828
529.135;39929.898;   -8.536;41854.852
529.721;39072.457;   -9.666;41237.711
530.306;38475.156;  -10.066;41259.445
530.892;38310.758;  -11.356;41506.047
531.478;39869.328;   -6.596;43559.613
532.063;42684.711;   -8.836;47695.563
532.649;43575.426;  -10.047;50808.324
533.235;44498.152;   -9.746;51787.500
533.820;45095.730;   -6.566;52145.035
534.406;46352.406;  -10.817;51133.488
534.991;46095.668;   -9.416;49996.805
535.576;44668.582;   -9.036;48882.852
536.162;45381.027;   -6.156;46942.285
536.747;46438.168;  -11.607;45711.746
537.333;49639.684;  -11.787;48510.180
537.918;53595.914;  -12.437;50439.891
538.503;52553.160;   -7.196;50863.711
539.088;48636.285;  -10.556;50906.922
539.673;48304.402;   -8.767;52621.965
540.259;48229.938;  -10.026;52368.094
540.844;45565.059;   -7.416;50879.109
541.429;46817.488;   -9.467;52077.777
542.014;50124.371;   -9.527;52716.695
542.599;49932.852;   -9.946;52363.281
543.184;46933.699;   -7.927;53187.137
543.769;47888.848;   -9.297;54697.605
544.354;47601.992;  -10.127;53913.914
544.938;46448.250;   -9.267;49680.164
545.523;48772.262;   -6.506;47386.277
546.108;51508.363;   -9.787;49151.949
546.693;53576.754;  -11.587;51384.637
547.278;53333.551;  -10.986;51853.254
547.862;50449.484;   -8.206;51173.750
548.447;45867.313;  -10.067;51691.395
549.031;44857.492;   -9.637;52456.703
549.616;49682.727;   -9.926;52714.516
550.201;49361.676;   -6.347;52414.598
550.785;50265.109;   -7.917;52355.059
551.370;49274.707;  -10.867;54589.453
551.954;48654.793;   -9.047;58267.348
552.538;50124.688;   -7.827;59062.176
553.123;48415.594;  -10.287;58115.285
553.707;45497.488;  -12.178;56556.285
554.291;46186.785;   -8.717;56201.668
554.876;48618.867;   -7.457;55335.762
555.460;49266.219;  -10.387;54155.703
556.044;50992.297;   -9.618;53721.484
556.628;49416.582;  -11.567;53731.016
557.212;48138.523;   -8.097;54312.531
557.796;45913.609;  -11.077;53797.773
558.380;46256.160;  -11.108;56145.984
558.964;47285.105;   -9.057;57277.930
559.548;48631.012;   -6.977;56459.641
560.132;46266.164;  -11.457;54434.543
560.716;44527.281;  -11.378;54800.617
561.300;45226.668;   -9.577;57606.945
561.884;46363.008;   -7.127;58972.445
562.467;44739.152;   -7.118;57327.570
563.051;44464.355;  -13.358;54962.434
563.635;45452.203;  -10.178;52594.473
564.219;45384.977;   -7.837;50610.410
564.802;45994.813;  -11.398;49551.180
565.386;46199.609;  -12.788;48370.953
565.969;45967.281;   -9.077;48178.871
566.553;44262.848;   -6.207;49957.305
567.136;44846.520;   -8.568;50369.594
567.720;41451.684;  -11.868;49492.004
568.303;39419.109;   -8.268;50616.352
568.887;39214.605;   -8.698;50727.148
569.470;39522.152;   -6.808;51698.379
570.053;38854.316;  -13.188;52122.078
570.637;37147.129;  -12.037;52536.438
571.220;36620.785;   -8.577;51186.098
571.803;37034.195;   -8.498;51032.762
572.386;38795.488;  -10.498;49609.887
572.969;41427.977;   -9.388;48285.926
573.552;40210.641;   -8.338;47624.285
574.135;38917.730;   -8.518;45498.641
574.718;36527.863;  -13.628;41970.434
575.301;35451.227;  -10.893;41447.137
575.884;34374.590;   -8.158;40923.836
576.467;35519.484;  -10.328;45267.723
577.050;37080.844;  -13.058;48175.543
577.633;38814.211;   -9.458;47729.328
578.216;38032.660;   -8.928;47579.793
578.799;36961.973;   -9.358;47820.996
579.381;35870.371;  -11.388;48115.551
579.964;33818.020;  -11.718;47333.766
580.547;35309.047;   -8.588;46668.969
581.129;36176.352;   -8.859;44466.141
581.712;36893.906;  -10.729;44164.922
582.294;37622.117;  -11.118;46477.855
582.877;37769.449;   -5.218;48244.254
583.459;35793.039;   -8.679;47437.895
584.042;33806.887;  -10.709;46943.219
584.624;33923.441;  -11.669;46792.227
585.206;33510.246;   -8.218;46557.250
585.789;33336.918;  -10.569;45793.773
586.371;36146.617;  -11.859;43836.391
586.953;37306.980;  -10.719;42972.492
587.536;38133.320;   -7.198;42487.211
588.118;38785.676;   -8.720;42086.414
588.700;34701.941;  -10.439;43389.930
589.282;33508.840;   -9.198;43646.039
589.864;34115.039;   -9.199;43438.109
590.446;35462.332;  -11.319;43151.926
591.028;35721.617;  -11.159;42781.867
591.610;34649.520;  -11.779;42839.098
592.192;31499.135;   -7.668;42820.402
592.774;29796.785;  -11.949;40724.277
593.356;28603.504;  -12.129;39874.789
593.937;27901.635;  -10.669;39980.648
594.519;29795.227;   -6.509;42069.633
595.101;32049.684;  -10.849;42976.031
