
Integration time [ms]:   3.276
Averaging Nr. [scans]: 1000
Smoothing Nr. [pixels]: 0
Data measured with spectrometer [name]: 7414430SP
Wave   ;Sample   ;Dark     ;Reference
[nm]   ;[counts] ;[counts] ;[counts] 

288.544;  150.521;    7.793;  793.890
289.143;  154.244;    7.462;  681.602
289.742;  154.329;    8.602;  828.814
290.341;  139.459;    1.321;  789.841
290.940;  128.448;   -0.709;  730.702
291.538;  129.694;    0.881;  881.108
292.137;  130.129;    0.122;  792.581
292.736;  134.806;   -1.929;  975.101
293.335;  130.661;   -8.229;  735.086
293.934;  131.337;   -5.279;  781.677
294.532;  130.182;   -1.369; 1031.958
295.131;  115.641;   -7.641;  834.394
295.730;  116.338;   -8.420;  809.588
296.328;  114.884;   -5.611;  783.442
296.927;  115.815;   -5.781;  779.652
297.525;  115.609;   -6.361;  781.236
298.124;  107.347;  -11.382;  654.009
298.722;  110.549;   -7.641;  761.933
299.321;  108.906;   -6.811;  708.597
299.919;  106.845;   -6.991;  751.918
300.518;  103.565;  -10.362;  689.338
301.116;  104.871;   -9.581;  691.381
301.715;  104.438;   -4.891;  730.222
302.313;  103.973;   -8.801;  704.943
302.911;   99.618;   -8.522;  733.830
303.509;  104.908;   -6.171;  925.627
304.108;  102.353;   -7.311;  760.383
304.706;  101.735;   -8.321;  801.664
305.304;   95.935;  -10.222;  796.707
305.902;  101.483;   -6.021;  784.484
306.500;   96.993;   -4.971;  728.200
307.098;   94.926;   -7.061;  746.560
307.696;   93.521;   -8.801;  780.432
308.294;   94.196;   -6.411;  731.359
308.892;   96.458;   -2.901;  759.769
309.490;   91.833;   -5.041;  712.161
310.088;   90.549;   -5.002;  788.444
310.686;   94.776;   -2.041;  821.749
311.284;   90.600;   -2.351;  766.040
311.882;   89.006;   -4.422;  731.225
312.480;   85.887;   -4.192;  697.167
313.078;   86.383;   -1.172;  808.331
313.675;   87.735;   -2.601;  691.600
314.273;   82.565;   -1.312;  797.837
314.871;   81.506;   -3.942;  589.829
315.468;   79.723;   -2.802;  652.090
316.066;   81.734;   -0.701;  694.427
316.664;   75.534;   -4.362;  656.351
317.261;   79.502;   -2.872;  910.128
317.859;   74.673;   -2.022;  768.735
318.456;   75.369;   -0.531;  830.096
319.054;   71.313;   -3.912;  787.828
319.651;   70.257;   -4.752;  759.928
320.249;   69.282;   -2.602;  810.188
320.846;   66.642;   -0.821;  714.286
321.443;   64.027;   -4.642;  832.135
322.041;   61.544;   -5.002;  812.315
322.638;   58.193;   -3.982;  701.456
323.235;   60.548;   -3.411;  665.683
323.833;   57.778;   -7.361;  740.354
324.430;   53.022;   -8.611;  615.900
325.027;   54.445;   -4.061;  876.855
325.624;   53.487;   -4.031;  644.532
326.221;   50.987;   -7.481;  689.717
326.818;   49.747;   -5.281;  818.332
327.415;   53.454;   -7.460;  748.828
328.012;   52.307;   -5.510;  690.585
328.609;   51.555;   -7.880;  731.389
329.206;   49.687;   -8.331;  778.621
329.803;   49.523;   -5.121;  737.841
330.400;   52.392;   -4.510;  704.260
330.997;   53.509;   -6.441;  817.147
331.594;   52.693;   -8.831;  788.185
332.191;   57.308;   -7.621;  728.722
332.787;   60.377;   -4.591;  844.463
333.384;   58.667;   -7.412;  763.093
333.981;   57.040;   -8.293;  815.687
334.578;   60.329;   -7.052;  708.378
335.174;   64.032;   -3.102;  731.469
335.771;   63.130;   -5.943;  836.456
336.367;   60.174;   -7.393;  710.631
336.964;   62.872;   -4.063;  793.266
337.561;   61.055;   -3.813;  731.112
338.157;   56.559;   -4.654;  911.916
338.754;   54.964;   -7.934;  796.589
339.350;   52.718;   -4.414;  722.493
339.946;   54.434;   -4.664;  773.135
340.543;   47.285;   -6.375;  846.136
341.139;   41.599;   -9.815;  720.836
341.735;   39.408;   -4.526;  772.593
342.332;   37.807;   -4.895;  691.472
342.928;   38.224;   -4.295;  795.394
343.524;   31.630;   -5.476;  761.684
344.120;   28.786;   -5.856;  738.562
344.716;   32.290;   -2.155;  723.717
345.313;   29.309;   -6.275;  795.342
345.909;   23.969;   -8.815;  627.336
346.505;   26.226;   -5.305;  740.247
347.101;   27.232;   -2.674;  827.864
347.697;   27.080;   -4.344;  785.398
348.293;   21.077;   -9.975;  627.244
348.889;   22.018;   -5.774;  745.914
349.485;   21.884;   -5.004;  688.205
350.081;   22.661;   -4.704;  772.592
350.676;   17.347;   -6.635;  691.606
351.272;   22.549;   -4.504;  809.530
351.868;   21.649;   -3.914;  780.497
352.464;   18.077;   -9.044;  723.932
353.059;   15.691;   -8.314;  646.017
353.655;   18.544;   -7.024;  777.063
354.251;   19.323;   -5.343;  759.845
354.846;   14.600;   -8.604;  740.646
355.442;   11.868;   -6.945;  753.071
356.038;   13.686;   -7.564;  751.708
356.633;   14.204;   -5.814;  728.594
357.229;   11.986;   -7.364;  724.757
357.824;   10.001;   -8.024;  703.600
358.420;    9.660;   -9.384;  679.726
359.015;   10.208;   -5.104;  695.357
359.610;   10.173;   -6.854;  763.920
360.206;    4.913;  -10.185;  603.240
360.801;    7.496;   -7.054;  646.503
361.396;    9.587;   -5.034;  725.975
361.992;    5.393;   -8.284;  668.220
362.587;    2.744;   -8.625;  670.160
363.182;    4.593;   -7.674;  689.631
363.777;    5.501;   -5.164;  738.242
364.372;    4.699;   -8.604;  737.314
364.967;    1.019;   -9.055;  680.744
365.563;    4.896;   -6.114;  815.567
366.158;    2.700;   -5.814;  685.161
366.753;    2.974;   -7.854;  649.263
367.348;    1.032;   -7.804;  746.056
367.942;    1.565;   -7.954;  697.298
368.537;    0.688;   -4.984;  754.245
369.132;    0.074;   -8.564;  703.428
369.727;   -2.587;   -8.855;  638.079
370.322;   -2.491;   -6.245;  580.186
370.917;   -2.540;   -6.425;  710.646
371.511;    0.717;   -6.294;  861.834
372.106;   -3.662;   -7.685;  776.964
372.701;   -6.136;   -7.335;  585.988
373.296;   -0.885;   -4.564;  863.135
373.890;   -5.263;  -10.235;  647.840
374.485;   -8.043;   -7.885;  691.199
375.079;   -3.775;   -7.324;  738.685
375.674;   -2.361;   -3.494;  812.970
376.268;   -7.545;   -8.525;  691.759
376.863;  -12.796;  -10.086;  580.327
377.457;   -6.059;   -7.025;  662.490
378.052;   -8.132;   -3.585;  764.884
378.646;   -9.047;   -7.595;  741.167
379.240;   -9.525;   -8.335;  721.176
379.835;   -7.887;   -5.785;  636.978
380.429;  -10.377;   -4.335;  562.557
381.023;  -10.761;   -6.805;  779.205
381.617;  -12.670;   -9.195;  680.106
382.212;   -9.532;   -6.905;  685.303
382.806;   -9.036;   -3.745;  760.690
383.400;  -13.234;   -7.745;  672.281
383.994;  -13.499;   -9.765;  664.870
384.588;  -10.326;   -6.564;  697.701
385.182;   -8.543;   -5.344;  726.624
385.776;  -10.463;   -8.514;  706.875
386.370;  -13.655;   -9.555;  681.968
386.964;  -11.874;   -8.715;  684.155
387.558;  -10.830;   -6.174;  598.360
388.152;  -13.970;   -8.725;  681.959
388.745;  -12.171;   -7.965;  814.707
389.339;  -10.910;   -5.924;  747.642
389.933;   -9.665;   -5.524;  695.370
390.527;  -10.829;   -7.114;  859.029
391.120;  -17.080;  -10.725;  595.318
391.714;  -13.683;   -8.035;  711.633
392.308;  -10.983;   -3.574;  780.253
392.901;  -14.305;   -7.245;  642.460
393.495;  -16.237;   -9.285;  595.414
394.089;  -13.776;   -5.895;  760.452
394.682;  -14.552;   -4.295;  697.188
395.275;  -15.228;   -9.875;  719.927
395.869;  -16.365;   -8.485;  667.314
396.462;  -14.785;   -7.455;  616.609
397.056;  -11.508;   -5.424;  776.621
397.649;  -15.811;   -6.605;  731.575
398.242;  -13.093;   -8.224;  712.645
398.836;  -11.824;   -7.474;  766.408
399.429;  -13.023;   -7.094;  631.041
400.022;  -17.195;   -9.475;  665.902
400.615;  -13.885;   -7.145;  805.609
401.208;  -12.384;   -7.174;  691.451
401.802;  -14.764;   -5.515;  699.329
402.395;  -16.183;   -9.875;  683.502
402.988;  -17.177;   -8.845;  696.627
403.581;  -13.939;   -8.874;  646.878
404.174;  -11.666;   -5.324;  686.568
404.767;  -14.454;   -9.575;  638.583
405.360;  -17.071;  -10.965;  621.445
405.953;  -11.007;   -8.764;  759.034
406.545;  -11.167;   -7.514;  725.342
407.138;  -15.708;  -10.025;  618.350
407.731;  -13.988;  -10.034;  613.303
408.324;  -10.001;   -9.374;  660.554
408.917;  -10.932;   -6.534;  681.864
409.509;  -12.935;   -8.004;  740.396
410.102;  -14.145;   -9.875;  643.948
410.695;   -9.509;   -8.604;  665.758
411.287;   -9.768;   -6.794;  599.821
411.880;  -11.775;   -9.334;  585.421
412.472;  -14.012;  -10.254;  613.092
413.065;  -11.678;   -6.714;  629.408
413.657;   -9.294;   -7.234;  576.678
414.250;   -8.259;  -10.544;  646.681
414.842;  -10.978;   -9.744;  676.353
415.434;   -8.356;   -6.994;  570.463
416.027;   -4.472;   -5.893;  652.196
416.619;   -6.735;   -7.264;  713.400
417.211;   -7.725;  -10.374;  599.352
417.804;   -3.578;   -7.993;  628.499
418.396;   -6.520;   -7.234;  607.643
418.988;   -5.521;   -9.443;  659.238
419.580;   -8.886;  -10.724;  568.276
420.172;   -6.581;  -10.323;  536.196
420.764;   -1.816;   -8.793;  672.482
421.356;   -2.802;  -11.143;  636.898
421.948;   -4.141;   -8.293;  677.661
422.540;    0.565;   -7.893;  680.027
423.132;    0.286;   -7.082;  600.641
423.724;   -3.871;   -8.653;  561.267
424.316;   -1.154;  -10.213;  621.345
424.908;    2.441;   -9.762;  591.517
425.500;    2.569;   -5.572;  647.978
426.092;    3.504;   -8.422;  648.268
426.683;    2.042;   -9.283;  684.836
427.275;    5.009;   -7.852;  641.471
427.867;    6.979;   -5.272;  668.948
428.458;    7.000;   -7.682;  732.344
429.050;    5.213;  -10.612;  680.749
429.642;    7.148;   -9.882;  743.124
430.233;    8.356;   -6.962;  569.356
430.825;    9.524;   -6.842;  724.809
431.416;    6.343;   -9.672;  698.241
432.008;   10.662;   -6.552;  651.723
432.599;   11.062;   -6.891;  656.073
433.190;    7.879;  -10.912;  637.670
433.782;    7.885;  -11.172;  590.395
434.373;   14.686;   -6.061;  884.765
434.964;   13.787;   -8.251;  602.920
435.556;   11.428;   -9.722;  634.537
436.147;   13.886;   -9.082;  758.490
436.738;   15.085;   -8.041;  701.099
437.329;   19.732;   -7.341;  721.723
437.920;   12.154;   -8.162;  666.688
438.511;   12.042;  -11.802;  564.526
439.103;   19.178;  -10.191;  623.998
439.694;   20.867;   -7.601;  681.583
440.285;   21.329;   -8.541;  764.432
440.876;   19.052;   -9.751;  845.738
441.466;   18.596;   -9.401;  575.162
442.057;   24.486;   -7.760;  665.814
442.648;   23.675;   -9.971;  746.255
443.239;   21.249;  -11.001;  620.477
443.830;   25.893;   -7.990;  704.958
444.421;   27.863;   -7.910;  655.474
445.011;   24.459;   -8.131;  693.619
445.602;   24.286;   -7.111;  743.126
446.193;   26.254;  -10.920;  488.117
446.783;   30.206;   -6.500;  640.397
447.374;   25.247;   -8.671;  692.759
447.964;   26.080;  -10.781;  713.770
448.555;   34.803;   -9.650;  822.742
449.145;   31.743;   -8.660;  662.853
449.736;   32.345;   -8.990;  803.179
450.326;   31.832;   -9.500;  713.626
450.917;   37.169;   -8.680;  675.324
451.507;   36.264;   -7.520;  600.661
452.097;   37.374;   -8.590;  746.267
452.688;   37.718;  -11.340;  742.160
453.278;   37.360;  -10.100;  566.840
453.868;   41.827;   -6.019;  793.550
454.458;   39.492;   -9.440;  651.141
455.048;   39.732;  -10.560;  711.783
455.639;   41.196;  -11.799;  567.096
456.229;   45.188;   -6.899;  710.694
456.819;   47.595;   -7.389;  751.158
457.409;   47.468;  -11.119;  773.993
457.999;   50.043;   -9.289;  737.505
458.589;   49.943;   -6.139;  686.606
459.179;   49.625;   -8.729;  717.658
459.769;   47.846;   -9.789;  627.099
460.358;   53.080;  -10.259;  797.262
460.948;   53.007;   -7.299;  689.503
461.538;   54.582;  -10.289;  660.677
462.128;   52.557;  -11.269;  664.934
462.717;   58.829;   -9.368;  710.326
463.307;   62.114;   -7.908;  705.846
463.897;   58.485;   -9.599;  656.942
464.486;   57.061;   -9.769;  837.128
465.076;   61.574;   -8.048;  733.776
465.666;   65.619;   -9.358;  652.900
466.255;   63.143;   -7.919;  785.651
466.845;   61.269;  -11.689;  666.749
467.434;   65.905;   -7.818;  725.873
468.023;   66.073;   -7.678;  658.357
468.613;   63.645;  -10.939;  713.946
469.202;   67.840;  -10.118;  646.507
469.791;   72.372;   -9.108;  737.811
470.381;   74.069;   -6.058;  742.813
470.970;   73.660;  -10.428;  711.099
471.559;   73.423;  -10.268;  733.291
472.148;   75.388;   -8.448;  675.737
472.738;   78.857;   -6.917;  765.466
473.327;   77.978;  -11.978;  637.529
473.916;   78.150;  -11.888;  737.446
474.505;   82.611;   -9.437;  751.703
475.094;   85.434;   -6.747;  806.570
475.683;   84.332;   -9.367;  797.699
476.272;   85.992;  -12.637;  730.632
476.861;   88.690;  -10.027;  706.754
477.449;   95.112;   -8.716;  728.487
478.038;   88.897;   -9.577;  692.513
478.627;   90.060;   -9.718;  714.852
479.216;   97.566;   -8.947;  769.441
479.805;  100.015;   -6.256;  783.375
480.393;   99.778;   -7.937; 1008.945
480.982;   98.627;   -7.717;  874.501
481.571;  104.707;   -9.266;  858.333
482.159;  105.522;   -7.636;  705.386
482.748;  105.800;   -9.667;  821.385
483.336;  110.396;  -10.376;  858.209
483.925;  109.901;   -7.147;  774.373
484.513;  117.017;   -7.996;  758.962
485.102;  114.440;  -10.027;  810.965
485.690;  121.630;  -10.446; 1011.050
486.278;  124.723;   -8.446;  979.329
486.867;  125.393;   -6.356;  809.662
487.455;  126.866;   -9.136;  898.229
488.043;  127.757;  -10.646;  748.361
488.631;  137.428;   -7.456; 1005.079
489.220;  140.267;   -6.636;  908.626
489.808;  140.936;  -11.036;  741.415
490.396;  148.720;  -10.246;  914.645
490.984;  154.982;   -8.556;  830.161
491.572;  163.172;   -5.886;  940.315
492.160;  169.436;   -9.486;  919.081
492.748;  181.472;  -10.976;  884.341
493.336;  203.686;   -8.776; 1019.693
493.924;  230.086;   -5.465;  958.077
494.512;  256.517;   -9.986; 1066.638
495.100;  292.291;  -10.636; 1103.280
495.687;  347.503;  -10.885; 1206.373
496.275;  407.653;   -8.126; 1150.796
496.863;  477.190;  -10.586; 1281.171
497.451;  575.226;  -11.926; 1386.805
498.038;  706.256;  -10.885; 1556.729
498.626;  809.737;   -6.315; 1741.407
499.214;  955.407;   -7.326; 2016.609
499.801; 1150.894;  -11.906; 2220.633
500.389; 1377.749;  -10.466; 2312.494
500.976; 1674.560;   -5.236; 2744.849
501.564; 2086.827;   -8.936; 3148.565
502.151; 2436.880;  -13.176; 3515.999
502.738; 2857.405;  -10.646; 3971.274
503.326; 3241.514;   -9.525; 4403.796
503.913; 3639.871;  -10.856; 5161.749
504.500; 4012.394;  -11.586; 5986.420
505.088; 4381.482;  -10.336; 6381.201
505.675; 4891.669;   -6.355; 6925.547
506.262; 5567.714;   -9.046; 7619.060
506.849; 6280.284;  -10.416; 8733.969
507.436; 6819.924;  -10.305; 9790.121
508.023; 7372.119;   -5.496; 9985.472
508.610; 7560.537;   -7.856;10434.618
509.197; 8149.027;  -10.097;11198.435
509.784; 9455.819;  -10.886;12391.194
510.371;10563.281;   -9.315;13603.713
510.958;11291.255;   -9.936;14426.586
511.545;11992.535;   -9.326;15243.775
512.132;12858.699;  -10.075;15945.876
512.719;13447.008;   -7.796;16340.369
513.305;14577.085;  -10.606;18011.766
513.892;15310.264;  -11.486;19754.971
514.479;16432.674;   -9.126;20967.805
515.066;17750.057;   -6.026;22299.793
515.652;19248.756;   -8.466;22908.660
516.239;20514.006;  -10.886;23798.875
516.825;21445.025;  -11.496;25567.275
517.412;22528.115;   -5.796;28154.959
517.998;23249.943;  -10.506;28344.111
518.585;23142.252;  -10.076;27134.219
519.171;23617.592;   -8.315;27268.576
519.758;25620.189;   -8.596;28964.129
520.344;27565.604;   -8.466;30664.494
520.930;27192.365;  -11.006;32550.605
521.516;28411.104;  -10.495;35422.895
522.103;30359.592;   -5.526;38280.004
522.689;31060.250;   -8.746;37835.117
523.275;30469.908;  -11.376;37288.613
523.861;31927.762;  -11.156;37281.395
524.447;33626.961;   -8.135;37846.949
525.033;33440.590;   -7.896;38321.949
525.619;33821.027;  -12.476;38579.285
526.205;35162.980;   -9.516;40622.875
526.791;37648.102;   -6.926;42258.836
527.377;37458.906;   -8.346;42966.902
527.963;38631.395;   -8.717;42018.949
528.549;37963.117;  -11.016;42476.828
529.135;36793.055;   -8.536;41854.852
529.721;35780.414;   -9.666;41237.711
530.306;35252.102;  -10.066;41259.445
530.892;35163.535;  -11.356;41506.047
531.478;35936.504;   -6.596;43559.613
532.063;39089.676;   -8.836;47695.563
532.649;40067.766;  -10.047;50808.324
533.235;40813.895;   -9.746;51787.500
533.820;41483.980;   -6.566;52145.035
534.406;42784.340;  -10.817;51133.488
534.991;42615.602;   -9.416;49996.805
535.576;41173.754;   -9.036;48882.852
536.162;41833.789;   -6.156;46942.285
536.747;43081.613;  -11.607;45711.746
537.333;46013.164;  -11.787;48510.180
537.918;48549.992;  -12.437;50439.891
538.503;47798.383;   -7.196;50863.711
539.088;44799.914;  -10.556;50906.922
539.673;45185.691;   -8.767;52621.965
540.259;45764.859;  -10.026;52368.094
540.844;42973.137;   -7.416;50879.109
541.429;44245.691;   -9.467;52077.777
542.014;46451.363;   -9.527;52716.695
542.599;45860.555;   -9.946;52363.281
543.184;42793.926;   -7.927;53187.137
543.769;43811.668;   -9.297;54697.605
544.354;44173.270;  -10.127;53913.914
544.938;42843.879;   -9.267;49680.164
545.523;44341.996;   -6.506;47386.277
546.108;46872.480;   -9.787;49151.949
546.693;48842.695;  -11.587;51384.637
547.278;49233.199;  -10.986;51853.254
547.862;46106.988;   -8.206;51173.750
548.447;41642.859;  -10.067;51691.395
549.031;41143.852;   -9.637;52456.703
549.616;45826.363;   -9.926;52714.516
550.201;45443.469;   -6.347;52414.598
550.785;46604.004;   -7.917;52355.059
551.370;46030.371;  -10.867;54589.453
551.954;45902.723;   -9.047;58267.348
552.538;46607.738;   -7.827;59062.176
553.123;44930.480;  -10.287;58115.285
553.707;42925.508;  -12.178;56556.285
554.291;44416.355;   -8.717;56201.668
554.876;47145.918;   -7.457;55335.762
555.460;47193.219;  -10.387;54155.703
556.044;47387.691;   -9.618;53721.484
556.628;45333.172;  -11.567;53731.016
557.212;44221.223;   -8.097;54312.531
557.796;43059.020;  -11.077;53797.773
558.380;43115.805;  -11.108;56145.984
558.964;43253.234;   -9.057;57277.930
559.548;44003.504;   -6.977;56459.641
560.132;42281.672;  -11.457;54434.543
560.716;41065.805;  -11.378;54800.617
561.300;42433.438;   -9.577;57606.945
561.884;43471.695;   -7.127;58972.445
562.467;41470.512;   -7.118;57327.570
563.051;40408.219;  -13.358;54962.434
563.635;41575.129;  -10.178;52594.473
564.219;42558.297;   -7.837;50610.410
564.802;43240.391;  -11.398;49551.180
565.386;42737.105;  -12.788;48370.953
565.969;42205.188;   -9.077;48178.871
566.553;41400.055;   -6.207;49957.305
567.136;42177.961;   -8.568;50369.594
567.720;38857.496;  -11.868;49492.004
568.303;36971.418;   -8.268;50616.352
568.887;36912.168;   -8.698;50727.148
569.470;37442.590;   -6.808;51698.379
570.053;36624.551;  -13.188;52122.078
570.637;34237.242;  -12.037;52536.438
571.220;33806.547;   -8.577;51186.098
571.803;34601.648;   -8.498;51032.762
572.386;36991.027;  -10.498;49609.887
572.969;39443.715;   -9.388;48285.926
573.552;37713.891;   -8.338;47624.285
574.135;36438.086;   -8.518;45498.641
574.718;33846.336;  -13.628;41970.434
575.301;32971.102;  -10.893;41447.137
575.884;32095.867;   -8.158;40923.836
576.467;33215.613;  -10.328;45267.723
577.050;34811.785;  -13.058;48175.543
577.633;35856.848;   -9.458;47729.328
578.216;34933.055;   -8.928;47579.793
578.799;33820.977;   -9.358;47820.996
579.381;32281.469;  -11.388;48115.551
579.964;30130.254;  -11.718;47333.766
580.547;32128.318;   -8.588;46668.969
581.129;33461.066;   -8.859;44466.141
581.712;34611.867;  -10.729;44164.922
582.294;35229.527;  -11.118;46477.855
582.877;35258.930;   -5.218;48244.254
583.459;33303.191;   -8.679;47437.895
584.042;31128.283;  -10.709;46943.219
584.624;31090.217;  -11.669;46792.227
585.206;30674.336;   -8.218;46557.250
585.789;30817.443;  -10.569;45793.773
586.371;32252.834;  -11.859;43836.391
586.953;31361.428;  -10.719;42972.492
587.536;29841.430;   -7.198;42487.211
588.118;28556.324;   -8.720;42086.414
588.700;27016.746;  -10.439;43389.930
589.282;29136.227;   -9.198;43646.039
589.864;32330.813;   -9.199;43438.109
590.446;34388.699;  -11.319;43151.926
591.028;34222.039;  -11.159;42781.867
591.610;32951.914;  -11.779;42839.098
592.192;30511.609;   -7.668;42820.402
592.774;29236.900;  -11.949;40724.277
593.356;28333.223;  -12.129;39874.789
593.937;27465.590;  -10.669;39980.648
594.519;29839.850;   -6.509;42069.633
595.101;31759.561;  -10.849;42976.031
