
Integration time [ms]:   3.276
Averaging Nr. [scans]: 1000
Smoothing Nr. [pixels]: 0
Data measured with spectrometer [name]: 7414430SP
Wave   ;Sample   ;Dark     ;Reference
[nm]   ;[counts] ;[counts] ;[counts] 

288.544;  149.576;    7.793;  793.890
289.143;  154.195;    7.462;  681.602
289.742;  154.108;    8.602;  828.814
290.341;  138.816;    1.321;  789.841
290.940;  128.611;   -0.709;  730.702
291.538;  129.960;    0.881;  881.108
292.137;  129.320;    0.122;  792.581
292.736;  133.959;   -1.929;  975.101
293.335;  130.342;   -8.229;  735.086
293.934;  131.127;   -5.279;  781.677
294.532;  129.187;   -1.369; 1031.958
295.131;  115.339;   -7.641;  834.394
295.730;  115.922;   -8.420;  809.588
296.328;  114.232;   -5.611;  783.442
296.927;  114.718;   -5.781;  779.652
297.525;  116.521;   -6.361;  781.236
298.124;  106.422;  -11.382;  654.009
298.722;  109.763;   -7.641;  761.933
299.321;  107.998;   -6.811;  708.597
299.919;  106.144;   -6.991;  751.918
300.518;  103.462;  -10.362;  689.338
301.116;  104.635;   -9.581;  691.381
301.715;  104.976;   -4.891;  730.222
302.313;  103.531;   -8.801;  704.943
302.911;   98.515;   -8.522;  733.830
303.509;  104.974;   -6.171;  925.627
304.108;  102.877;   -7.311;  760.383
304.706;  101.604;   -8.321;  801.664
305.304;   95.578;  -10.222;  796.707
305.902;  101.668;   -6.021;  784.484
306.500;   96.932;   -4.971;  728.200
307.098;   94.993;   -7.061;  746.560
307.696;   93.135;   -8.801;  780.432
308.294;   94.089;   -6.411;  731.359
308.892;   95.951;   -2.901;  759.769
309.490;   91.898;   -5.041;  712.161
310.088;   91.263;   -5.002;  788.444
310.686;   94.327;   -2.041;  821.749
311.284;   90.557;   -2.351;  766.040
311.882;   87.734;   -4.422;  731.225
312.480;   85.332;   -4.192;  697.167
313.078;   87.128;   -1.172;  808.331
313.675;   86.952;   -2.601;  691.600
314.273;   81.698;   -1.312;  797.837
314.871;   81.079;   -3.942;  589.829
315.468;   79.119;   -2.802;  652.090
316.066;   82.239;   -0.701;  694.427
316.664;   75.336;   -4.362;  656.351
317.261;   80.315;   -2.872;  910.128
317.859;   74.573;   -2.022;  768.735
318.456;   74.658;   -0.531;  830.096
319.054;   71.284;   -3.912;  787.828
319.651;   69.480;   -4.752;  759.928
320.249;   69.424;   -2.602;  810.188
320.846;   67.049;   -0.821;  714.286
321.443;   64.537;   -4.642;  832.135
322.041;   60.446;   -5.002;  812.315
322.638;   59.306;   -3.982;  701.456
323.235;   60.372;   -3.411;  665.683
323.833;   57.681;   -7.361;  740.354
324.430;   52.496;   -8.611;  615.900
325.027;   53.859;   -4.061;  876.855
325.624;   53.757;   -4.031;  644.532
326.221;   50.071;   -7.481;  689.717
326.818;   50.212;   -5.281;  818.332
327.415;   53.765;   -7.460;  748.828
328.012;   52.641;   -5.510;  690.585
328.609;   51.057;   -7.880;  731.389
329.206;   49.734;   -8.331;  778.621
329.803;   49.638;   -5.121;  737.841
330.400;   52.146;   -4.510;  704.260
330.997;   53.962;   -6.441;  817.147
331.594;   52.601;   -8.831;  788.185
332.191;   58.018;   -7.621;  728.722
332.787;   60.384;   -4.591;  844.463
333.384;   58.568;   -7.412;  763.093
333.981;   57.502;   -8.293;  815.687
334.578;   60.330;   -7.052;  708.378
335.174;   63.617;   -3.102;  731.469
335.771;   62.708;   -5.943;  836.456
336.367;   59.894;   -7.393;  710.631
336.964;   63.564;   -4.063;  793.266
337.561;   61.459;   -3.813;  731.112
338.157;   56.988;   -4.654;  911.916
338.754;   54.527;   -7.934;  796.589
339.350;   52.520;   -4.414;  722.493
339.946;   54.772;   -4.664;  773.135
340.543;   46.061;   -6.375;  846.136
341.139;   41.006;   -9.815;  720.836
341.735;   39.859;   -4.526;  772.593
342.332;   37.467;   -4.895;  691.472
342.928;   37.502;   -4.295;  795.394
343.524;   32.598;   -5.476;  761.684
344.120;   28.959;   -5.856;  738.562
344.716;   31.564;   -2.155;  723.717
345.313;   29.369;   -6.275;  795.342
345.909;   24.242;   -8.815;  627.336
346.505;   25.924;   -5.305;  740.247
347.101;   27.216;   -2.674;  827.864
347.697;   28.029;   -4.344;  785.398
348.293;   21.783;   -9.975;  627.244
348.889;   23.348;   -5.774;  745.914
349.485;   22.176;   -5.004;  688.205
350.081;   21.836;   -4.704;  772.592
350.676;   17.223;   -6.635;  691.606
351.272;   21.974;   -4.504;  809.530
351.868;   21.818;   -3.914;  780.497
352.464;   18.317;   -9.044;  723.932
353.059;   14.410;   -8.314;  646.017
353.655;   18.734;   -7.024;  777.063
354.251;   19.501;   -5.343;  759.845
354.846;   13.574;   -8.604;  740.646
355.442;   11.600;   -6.945;  753.071
356.038;   13.824;   -7.564;  751.708
356.633;   14.340;   -5.814;  728.594
357.229;   11.274;   -7.364;  724.757
357.824;    9.728;   -8.024;  703.600
358.420;    9.240;   -9.384;  679.726
359.015;    9.576;   -5.104;  695.357
359.610;   10.828;   -6.854;  763.920
360.206;    4.801;  -10.185;  603.240
360.801;    7.318;   -7.054;  646.503
361.396;    9.695;   -5.034;  725.975
361.992;    4.586;   -8.284;  668.220
362.587;    2.168;   -8.625;  670.160
363.182;    5.357;   -7.674;  689.631
363.777;    5.076;   -5.164;  738.242
364.372;    4.959;   -8.604;  737.314
364.967;    1.338;   -9.055;  680.744
365.563;    5.722;   -6.114;  815.567
366.158;    2.880;   -5.814;  685.161
366.753;    2.179;   -7.854;  649.263
367.348;    1.693;   -7.804;  746.056
367.942;    0.920;   -7.954;  697.298
368.537;    0.257;   -4.984;  754.245
369.132;    0.377;   -8.564;  703.428
369.727;   -3.381;   -8.855;  638.079
370.322;   -1.589;   -6.245;  580.186
370.917;   -2.625;   -6.425;  710.646
371.511;   -0.108;   -6.294;  861.834
372.106;   -3.296;   -7.685;  776.964
372.701;   -6.445;   -7.335;  585.988
373.296;   -0.639;   -4.564;  863.135
373.890;   -5.819;  -10.235;  647.840
374.485;   -8.532;   -7.885;  691.199
375.079;   -4.193;   -7.324;  738.685
375.674;   -1.845;   -3.494;  812.970
376.268;   -6.863;   -8.525;  691.759
376.863;  -12.968;  -10.086;  580.327
377.457;   -6.209;   -7.025;  662.490
378.052;   -8.448;   -3.585;  764.884
378.646;   -8.996;   -7.595;  741.167
379.240;   -9.148;   -8.335;  721.176
379.835;   -8.977;   -5.785;  636.978
380.429;  -10.079;   -4.335;  562.557
381.023;  -10.442;   -6.805;  779.205
381.617;  -12.653;   -9.195;  680.106
382.212;   -9.762;   -6.905;  685.303
382.806;   -8.930;   -3.745;  760.690
383.400;  -11.946;   -7.745;  672.281
383.994;  -13.709;   -9.765;  664.870
384.588;   -9.622;   -6.564;  697.701
385.182;   -8.806;   -5.344;  726.624
385.776;   -9.278;   -8.514;  706.875
386.370;  -13.313;   -9.555;  681.968
386.964;  -12.192;   -8.715;  684.155
387.558;  -10.850;   -6.174;  598.360
388.152;  -14.659;   -8.725;  681.959
388.745;  -12.941;   -7.965;  814.707
389.339;  -10.506;   -5.924;  747.642
389.933;   -9.068;   -5.524;  695.370
390.527;  -10.999;   -7.114;  859.029
391.120;  -17.437;  -10.725;  595.318
391.714;  -13.465;   -8.035;  711.633
392.308;  -10.696;   -3.574;  780.253
392.901;  -14.904;   -7.245;  642.460
393.495;  -16.490;   -9.285;  595.414
394.089;  -14.550;   -5.895;  760.452
394.682;  -14.331;   -4.295;  697.188
395.275;  -15.374;   -9.875;  719.927
395.869;  -17.073;   -8.485;  667.314
396.462;  -14.541;   -7.455;  616.609
397.056;  -11.098;   -5.424;  776.621
397.649;  -15.714;   -6.605;  731.575
398.242;  -13.544;   -8.224;  712.645
398.836;  -11.944;   -7.474;  766.408
399.429;  -13.020;   -7.094;  631.041
400.022;  -17.088;   -9.475;  665.902
400.615;  -14.377;   -7.145;  805.609
401.208;  -12.287;   -7.174;  691.451
401.802;  -15.388;   -5.515;  699.329
402.395;  -16.269;   -9.875;  683.502
402.988;  -17.485;   -8.845;  696.627
403.581;  -14.371;   -8.874;  646.878
404.174;  -11.077;   -5.324;  686.568
404.767;  -14.717;   -9.575;  638.583
405.360;  -16.831;  -10.965;  621.445
405.953;  -11.230;   -8.764;  759.034
406.545;  -11.158;   -7.514;  725.342
407.138;  -15.135;  -10.025;  618.350
407.731;  -14.377;  -10.034;  613.303
408.324;   -9.652;   -9.374;  660.554
408.917;  -11.183;   -6.534;  681.864
409.509;  -12.853;   -8.004;  740.396
410.102;  -14.868;   -9.875;  643.948
410.695;   -8.657;   -8.604;  665.758
411.287;   -9.849;   -6.794;  599.821
411.880;  -11.743;   -9.334;  585.421
412.472;  -13.770;  -10.254;  613.092
413.065;  -11.095;   -6.714;  629.408
413.657;   -8.680;   -7.234;  576.678
414.250;   -9.034;  -10.544;  646.681
414.842;  -11.086;   -9.744;  676.353
415.434;   -8.544;   -6.994;  570.463
416.027;   -4.812;   -5.893;  652.196
416.619;   -6.495;   -7.264;  713.400
417.211;   -7.528;  -10.374;  599.352
417.804;   -3.694;   -7.993;  628.499
418.396;   -7.710;   -7.234;  607.643
418.988;   -5.442;   -9.443;  659.238
419.580;   -8.426;  -10.724;  568.276
420.172;   -6.491;  -10.323;  536.196
420.764;   -1.919;   -8.793;  672.482
421.356;   -3.662;  -11.143;  636.898
421.948;   -4.633;   -8.293;  677.661
422.540;    0.884;   -7.893;  680.027
423.132;    0.289;   -7.082;  600.641
423.724;   -3.619;   -8.653;  561.267
424.316;   -1.906;  -10.213;  621.345
424.908;    2.849;   -9.762;  591.517
425.500;    3.108;   -5.572;  647.978
426.092;    3.093;   -8.422;  648.268
426.683;    1.931;   -9.283;  684.836
427.275;    6.194;   -7.852;  641.471
427.867;    6.496;   -5.272;  668.948
428.458;    7.231;   -7.682;  732.344
429.050;    4.885;  -10.612;  680.749
429.642;    7.584;   -9.882;  743.124
430.233;    8.055;   -6.962;  569.356
430.825;    9.528;   -6.842;  724.809
431.416;    6.897;   -9.672;  698.241
432.008;   10.404;   -6.552;  651.723
432.599;   11.659;   -6.891;  656.073
433.190;    7.682;  -10.912;  637.670
433.782;    7.595;  -11.172;  590.395
434.373;   14.890;   -6.061;  884.765
434.964;   13.407;   -8.251;  602.920
435.556;   10.761;   -9.722;  634.537
436.147;   13.838;   -9.082;  758.490
436.738;   14.177;   -8.041;  701.099
437.329;   19.123;   -7.341;  721.723
437.920;   11.773;   -8.162;  666.688
438.511;   11.796;  -11.802;  564.526
439.103;   18.767;  -10.191;  623.998
439.694;   20.086;   -7.601;  681.583
440.285;   20.869;   -8.541;  764.432
440.876;   19.895;   -9.751;  845.738
441.466;   18.776;   -9.401;  575.162
442.057;   23.937;   -7.760;  665.814
442.648;   22.783;   -9.971;  746.255
443.239;   20.814;  -11.001;  620.477
443.830;   26.826;   -7.990;  704.958
444.421;   27.821;   -7.910;  655.474
445.011;   24.084;   -8.131;  693.619
445.602;   23.841;   -7.111;  743.126
446.193;   25.587;  -10.920;  488.117
446.783;   30.334;   -6.500;  640.397
447.374;   25.364;   -8.671;  692.759
447.964;   26.286;  -10.781;  713.770
448.555;   35.245;   -9.650;  822.742
449.145;   31.470;   -8.660;  662.853
449.736;   32.155;   -8.990;  803.179
450.326;   31.974;   -9.500;  713.626
450.917;   36.310;   -8.680;  675.324
451.507;   36.150;   -7.520;  600.661
452.097;   36.501;   -8.590;  746.267
452.688;   37.493;  -11.340;  742.160
453.278;   37.353;  -10.100;  566.840
453.868;   41.199;   -6.019;  793.550
454.458;   39.755;   -9.440;  651.141
455.048;   39.294;  -10.560;  711.783
455.639;   41.604;  -11.799;  567.096
456.229;   45.196;   -6.899;  710.694
456.819;   46.825;   -7.389;  751.158
457.409;   46.860;  -11.119;  773.993
457.999;   50.378;   -9.289;  737.505
458.589;   49.807;   -6.139;  686.606
459.179;   49.687;   -8.729;  717.658
459.769;   47.695;   -9.789;  627.099
460.358;   53.115;  -10.259;  797.262
460.948;   52.891;   -7.299;  689.503
461.538;   54.765;  -10.289;  660.677
462.128;   51.801;  -11.269;  664.934
462.717;   58.545;   -9.368;  710.326
463.307;   61.383;   -7.908;  705.846
463.897;   56.922;   -9.599;  656.942
464.486;   56.794;   -9.769;  837.128
465.076;   61.628;   -8.048;  733.776
465.666;   65.120;   -9.358;  652.900
466.255;   62.683;   -7.919;  785.651
466.845;   61.071;  -11.689;  666.749
467.434;   64.935;   -7.818;  725.873
468.023;   65.791;   -7.678;  658.357
468.613;   63.361;  -10.939;  713.946
469.202;   66.929;  -10.118;  646.507
469.791;   71.450;   -9.108;  737.811
470.381;   73.269;   -6.058;  742.813
470.970;   73.033;  -10.428;  711.099
471.559;   72.065;  -10.268;  733.291
472.148;   76.387;   -8.448;  675.737
472.738;   78.430;   -6.917;  765.466
473.327;   77.965;  -11.978;  637.529
473.916;   77.366;  -11.888;  737.446
474.505;   82.070;   -9.437;  751.703
475.094;   85.190;   -6.747;  806.570
475.683;   84.222;   -9.367;  797.699
476.272;   85.247;  -12.637;  730.632
476.861;   88.554;  -10.027;  706.754
477.449;   94.549;   -8.716;  728.487
478.038;   88.801;   -9.577;  692.513
478.627;   89.625;   -9.718;  714.852
479.216;   96.301;   -8.947;  769.441
479.805;   99.433;   -6.256;  783.375
480.393;   99.165;   -7.937; 1008.945
480.982;   97.882;   -7.717;  874.501
481.571;  105.070;   -9.266;  858.333
482.159;  104.960;   -7.636;  705.386
482.748;  104.156;   -9.667;  821.385
483.336;  109.232;  -10.376;  858.209
483.925;  110.126;   -7.147;  774.373
484.513;  116.824;   -7.996;  758.962
485.102;  113.222;  -10.027;  810.965
485.690;  120.855;  -10.446; 1011.050
486.278;  124.134;   -8.446;  979.329
486.867;  124.433;   -6.356;  809.662
487.455;  126.268;   -9.136;  898.229
488.043;  127.333;  -10.646;  748.361
488.631;  135.916;   -7.456; 1005.079
489.220;  139.748;   -6.636;  908.626
489.808;  140.146;  -11.036;  741.415
490.396;  147.499;  -10.246;  914.645
490.984;  153.560;   -8.556;  830.161
491.572;  161.605;   -5.886;  940.315
492.160;  167.900;   -9.486;  919.081
492.748;  179.272;  -10.976;  884.341
493.336;  202.157;   -8.776; 1019.693
493.924;  227.175;   -5.465;  958.077
494.512;  253.084;   -9.986; 1066.638
495.100;  287.617;  -10.636; 1103.280
495.687;  341.380;  -10.885; 1206.373
496.275;  401.928;   -8.126; 1150.796
496.863;  468.681;  -10.586; 1281.171
497.451;  566.202;  -11.926; 1386.805
498.038;  693.580;  -10.885; 1556.729
498.626;  795.700;   -6.315; 1741.407
499.214;  944.635;   -7.326; 2016.609
499.801; 1135.954;  -11.906; 2220.633
500.389; 1371.988;  -10.466; 2312.494
500.976; 1656.069;   -5.236; 2744.849
501.564; 2079.382;   -8.936; 3148.565
502.151; 2433.098;  -13.176; 3515.999
502.738; 2843.078;  -10.646; 3971.274
503.326; 3219.773;   -9.525; 4403.796
503.913; 3595.070;  -10.856; 5161.749
504.500; 3967.001;  -11.586; 5986.420
505.088; 4370.006;  -10.336; 6381.201
505.675; 4895.265;   -6.355; 6925.547
506.262; 5548.828;   -9.046; 7619.060
506.849; 6222.065;  -10.416; 8733.969
507.436; 6722.063;  -10.305; 9790.121
508.023; 7290.187;   -5.496; 9985.472
508.610; 7566.853;   -7.856;10434.618
509.197; 8140.693;  -10.097;11198.435
509.784; 9408.419;  -10.886;12391.194
510.371;10493.850;   -9.315;13603.713
510.958;11215.757;   -9.936;14426.586
511.545;11958.912;   -9.326;15243.775
512.132;12755.583;  -10.075;15945.876
512.719;13249.344;   -7.796;16340.369
513.305;14298.907;  -10.606;18011.766
513.892;15018.174;  -11.486;19754.971
514.479;16257.086;   -9.126;20967.805
515.066;17785.727;   -6.026;22299.793
515.652;19226.443;   -8.466;22908.660
516.239;20385.887;  -10.886;23798.875
516.825;21163.027;  -11.496;25567.275
517.412;22304.281;   -5.796;28154.959
517.998;23133.662;  -10.506;28344.111
518.585;23177.146;  -10.076;27134.219
519.171;23621.406;   -8.315;27268.576
519.758;25314.492;   -8.596;28964.129
520.344;27262.152;   -8.466;30664.494
520.930;27123.570;  -11.006;32550.605
521.516;28260.320;  -10.495;35422.895
522.103;30223.619;   -5.526;38280.004
522.689;30680.063;   -8.746;37835.117
523.275;30208.201;  -11.376;37288.613
523.861;31778.451;  -11.156;37281.395
524.447;33568.941;   -8.135;37846.949
525.033;33417.539;   -7.896;38321.949
525.619;33483.730;  -12.476;38579.285
526.205;34804.738;   -9.516;40622.875
526.791;37411.281;   -6.926;42258.836
527.377;37533.977;   -8.346;42966.902
527.963;38926.098;   -8.717;42018.949
528.549;37940.668;  -11.016;42476.828
529.135;36689.949;   -8.536;41854.852
529.721;35758.598;   -9.666;41237.711
530.306;35066.641;  -10.066;41259.445
530.892;34634.074;  -11.356;41506.047
531.478;35936.957;   -6.596;43559.613
532.063;39017.086;   -8.836;47695.563
532.649;39966.934;  -10.047;50808.324
533.235;40793.949;   -9.746;51787.500
533.820;41200.914;   -6.566;52145.035
534.406;42499.480;  -10.817;51133.488
534.991;42299.688;   -9.416;49996.805
535.576;40668.371;   -9.036;48882.852
536.162;41469.727;   -6.156;46942.285
536.747;42708.359;  -11.607;45711.746
537.333;46053.883;  -11.787;48510.180
537.918;48831.262;  -12.437;50439.891
538.503;47722.641;   -7.196;50863.711
539.088;44350.168;  -10.556;50906.922
539.673;44196.297;   -8.767;52621.965
540.259;44301.813;  -10.026;52368.094
540.844;42052.047;   -7.416;50879.109
541.429;43847.539;   -9.467;52077.777
542.014;46321.488;   -9.527;52716.695
542.599;45346.563;   -9.946;52363.281
543.184;42645.469;   -7.927;53187.137
543.769;44054.172;   -9.297;54697.605
544.354;43849.871;  -10.127;53913.914
544.938;42342.699;   -9.267;49680.164
545.523;44149.043;   -6.506;47386.277
546.108;47304.844;   -9.787;49151.949
546.693;49252.980;  -11.587;51384.637
547.278;48937.938;  -10.986;51853.254
547.862;46241.668;   -8.206;51173.750
548.447;41970.973;  -10.067;51691.395
549.031;41157.117;   -9.637;52456.703
549.616;45930.410;   -9.926;52714.516
550.201;45677.867;   -6.347;52414.598
550.785;47013.141;   -7.917;52355.059
551.370;45925.180;  -10.867;54589.453
551.954;45272.039;   -9.047;58267.348
552.538;45835.520;   -7.827;59062.176
553.123;44153.980;  -10.287;58115.285
553.707;41869.984;  -12.178;56556.285
554.291;43464.598;   -8.717;56201.668
554.876;46312.016;   -7.457;55335.762
555.460;46500.273;  -10.387;54155.703
556.044;47283.398;   -9.618;53721.484
556.628;45712.102;  -11.567;53731.016
557.212;44438.750;   -8.097;54312.531
557.796;42810.969;  -11.077;53797.773
558.380;43090.109;  -11.108;56145.984
558.964;43558.340;   -9.057;57277.930
559.548;44556.688;   -6.977;56459.641
560.132;42751.469;  -11.457;54434.543
560.716;41206.621;  -11.378;54800.617
561.300;42107.211;   -9.577;57606.945
561.884;43097.043;   -7.127;58972.445
562.467;41401.539;   -7.118;57327.570
563.051;40812.895;  -13.358;54962.434
563.635;42009.621;  -10.178;52594.473
564.219;42466.094;   -7.837;50610.410
564.802;43337.383;  -11.398;49551.180
565.386;43097.145;  -12.788;48370.953
565.969;42388.969;   -9.077;48178.871
566.553;41188.258;   -6.207;49957.305
567.136;42101.313;   -8.568;50369.594
567.720;38904.152;  -11.868;49492.004
568.303;36783.707;   -8.268;50616.352
568.887;36564.863;   -8.698;50727.148
569.470;36976.781;   -6.808;51698.379
570.053;36163.340;  -13.188;52122.078
570.637;34100.867;  -12.037;52536.438
571.220;33734.820;   -8.577;51186.098
571.803;34479.598;   -8.498;51032.762
572.386;36770.293;  -10.498;49609.887
572.969;39225.883;   -9.388;48285.926
573.552;37647.418;   -8.338;47624.285
574.135;35972.020;   -8.518;45498.641
574.718;33610.934;  -13.628;41970.434
575.301;32979.789;  -10.893;41447.137
575.884;32348.648;   -8.158;40923.836
576.467;33265.977;  -10.328;45267.723
577.050;34635.434;  -13.058;48175.543
577.633;35764.859;   -9.458;47729.328
578.216;34977.625;   -8.928;47579.793
578.799;33748.613;   -9.358;47820.996
579.381;32423.973;  -11.388;48115.551
579.964;30523.316;  -11.718;47333.766
580.547;32357.100;   -8.588;46668.969
581.129;33920.617;   -8.859;44466.141
581.712;35190.184;  -10.729;44164.922
582.294;35752.637;  -11.118;46477.855
582.877;35573.316;   -5.218;48244.254
583.459;33769.738;   -8.679;47437.895
584.042;31648.803;  -10.709;46943.219
584.624;31407.922;  -11.669;46792.227
585.206;30872.855;   -8.218;46557.250
585.789;30707.148;  -10.569;45793.773
586.371;32658.152;  -11.859;43836.391
586.953;32444.475;  -10.719;42972.492
587.536;31839.602;   -7.198;42487.211
588.118;30158.217;   -8.720;42086.414
588.700;26384.668;  -10.439;43389.930
589.282;27582.537;   -9.198;43646.039
589.864;31264.104;   -9.199;43438.109
590.446;33855.395;  -11.319;43151.926
591.028;34290.586;  -11.159;42781.867
591.610;33269.379;  -11.779;42839.098
592.192;30603.684;   -7.668;42820.402
592.774;29141.801;  -11.949;40724.277
593.356;27949.098;  -12.129;39874.789
593.937;27074.982;  -10.669;39980.648
594.519;29185.088;   -6.509;42069.633
595.101;31213.281;  -10.849;42976.031
