
Integration time [ms]:   3.276
Averaging Nr. [scans]: 1000
Smoothing Nr. [pixels]: 0
Data measured with spectrometer [name]: 7414430SP
Wave   ;Sample   ;Dark     ;Reference
[nm]   ;[counts] ;[counts] ;[counts] 

288.544;  150.619;    7.793;  793.890
289.143;  153.665;    7.462;  681.602
289.742;  153.660;    8.602;  828.814
290.341;  139.968;    1.321;  789.841
290.940;  129.761;   -0.709;  730.702
291.538;  130.287;    0.881;  881.108
292.137;  129.169;    0.122;  792.581
292.736;  134.589;   -1.929;  975.101
293.335;  132.130;   -8.229;  735.086
293.934;  131.063;   -5.279;  781.677
294.532;  128.813;   -1.369; 1031.958
295.131;  116.423;   -7.641;  834.394
295.730;  116.687;   -8.420;  809.588
296.328;  114.753;   -5.611;  783.442
296.927;  114.419;   -5.781;  779.652
297.525;  117.112;   -6.361;  781.236
298.124;  107.747;  -11.382;  654.009
298.722;  110.584;   -7.641;  761.933
299.321;  107.528;   -6.811;  708.597
299.919;  106.230;   -6.991;  751.918
300.518;  104.742;  -10.362;  689.338
301.116;  104.833;   -9.581;  691.381
301.715;  104.525;   -4.891;  730.222
302.313;  104.294;   -8.801;  704.943
302.911;  100.746;   -8.522;  733.830
303.509;  104.807;   -6.171;  925.627
304.108;  101.457;   -7.311;  760.383
304.706;  102.267;   -8.321;  801.664
305.304;   97.164;  -10.222;  796.707
305.902;  101.303;   -6.021;  784.484
306.500;   95.827;   -4.971;  728.200
307.098;   95.856;   -7.061;  746.560
307.696;   95.035;   -8.801;  780.432
308.294;   93.535;   -6.411;  731.359
308.892;   96.081;   -2.901;  759.769
309.490;   92.829;   -5.041;  712.161
310.088;   91.849;   -5.002;  788.444
310.686;   94.312;   -2.041;  821.749
311.284;   89.717;   -2.351;  766.040
311.882;   87.907;   -4.422;  731.225
312.480;   86.154;   -4.192;  697.167
313.078;   86.508;   -1.172;  808.331
313.675;   86.519;   -2.601;  691.600
314.273;   83.335;   -1.312;  797.837
314.871;   82.792;   -3.942;  589.829
315.468;   80.751;   -2.802;  652.090
316.066;   82.676;   -0.701;  694.427
316.664;   76.456;   -4.362;  656.351
317.261;   80.099;   -2.872;  910.128
317.859;   74.741;   -2.022;  768.735
318.456;   75.359;   -0.531;  830.096
319.054;   71.673;   -3.912;  787.828
319.651;   71.929;   -4.752;  759.928
320.249;   69.433;   -2.602;  810.188
320.846;   67.270;   -0.821;  714.286
321.443;   65.004;   -4.642;  832.135
322.041;   62.491;   -5.002;  812.315
322.638;   59.157;   -3.982;  701.456
323.235;   60.383;   -3.411;  665.683
323.833;   58.027;   -7.361;  740.354
324.430;   54.399;   -8.611;  615.900
325.027;   53.912;   -4.061;  876.855
325.624;   52.650;   -4.031;  644.532
326.221;   51.357;   -7.481;  689.717
326.818;   51.256;   -5.281;  818.332
327.415;   54.009;   -7.460;  748.828
328.012;   52.728;   -5.510;  690.585
328.609;   52.611;   -7.880;  731.389
329.206;   51.147;   -8.331;  778.621
329.803;   49.701;   -5.121;  737.841
330.400;   51.489;   -4.510;  704.260
330.997;   54.237;   -6.441;  817.147
331.594;   53.539;   -8.831;  788.185
332.191;   57.901;   -7.621;  728.722
332.787;   60.439;   -4.591;  844.463
333.384;   59.580;   -7.412;  763.093
333.981;   58.542;   -8.293;  815.687
334.578;   61.472;   -7.052;  708.378
335.174;   62.508;   -3.102;  731.469
335.771;   63.492;   -5.943;  836.456
336.367;   60.638;   -7.393;  710.631
336.964;   64.192;   -4.063;  793.266
337.561;   60.490;   -3.813;  731.112
338.157;   58.089;   -4.654;  911.916
338.754;   55.628;   -7.934;  796.589
339.350;   52.525;   -4.414;  722.493
339.946;   54.782;   -4.664;  773.135
340.543;   47.603;   -6.375;  846.136
341.139;   42.682;   -9.815;  720.836
341.735;   40.195;   -4.526;  772.593
342.332;   36.854;   -4.895;  691.472
342.928;   39.809;   -4.295;  795.394
343.524;   34.037;   -5.476;  761.684
344.120;   28.370;   -5.856;  738.562
344.716;   31.800;   -2.155;  723.717
345.313;   30.075;   -6.275;  795.342
345.909;   25.553;   -8.815;  627.336
346.505;   27.517;   -5.305;  740.247
347.101;   26.849;   -2.674;  827.864
347.697;   27.455;   -4.344;  785.398
348.293;   23.140;   -9.975;  627.244
348.889;   23.320;   -5.774;  745.914
349.485;   21.443;   -5.004;  688.205
350.081;   22.779;   -4.704;  772.592
350.676;   19.128;   -6.635;  691.606
351.272;   22.491;   -4.504;  809.530
351.868;   22.413;   -3.914;  780.497
352.464;   19.077;   -9.044;  723.932
353.059;   16.665;   -8.314;  646.017
353.655;   18.812;   -7.024;  777.063
354.251;   20.131;   -5.343;  759.845
354.846;   15.265;   -8.604;  740.646
355.442;   13.329;   -6.945;  753.071
356.038;   14.522;   -7.564;  751.708
356.633;   14.146;   -5.814;  728.594
357.229;   12.043;   -7.364;  724.757
357.824;   11.650;   -8.024;  703.600
358.420;    9.609;   -9.384;  679.726
359.015;    9.738;   -5.104;  695.357
359.610;   11.476;   -6.854;  763.920
360.206;    5.906;  -10.185;  603.240
360.801;    7.837;   -7.054;  646.503
361.396;   10.071;   -5.034;  725.975
361.992;    5.564;   -8.284;  668.220
362.587;    3.416;   -8.625;  670.160
363.182;    4.766;   -7.674;  689.631
363.777;    5.716;   -5.164;  738.242
364.372;    5.584;   -8.604;  737.314
364.967;    2.379;   -9.055;  680.744
365.563;    5.239;   -6.114;  815.567
366.158;    2.530;   -5.814;  685.161
366.753;    3.568;   -7.854;  649.263
367.348;    2.736;   -7.804;  746.056
367.942;    1.420;   -7.954;  697.298
368.537;    0.357;   -4.984;  754.245
369.132;    0.824;   -8.564;  703.428
369.727;   -2.374;   -8.855;  638.079
370.322;   -1.781;   -6.245;  580.186
370.917;   -2.901;   -6.425;  710.646
371.511;    0.610;   -6.294;  861.834
372.106;   -1.875;   -7.685;  776.964
372.701;   -5.854;   -7.335;  585.988
373.296;   -0.809;   -4.564;  863.135
373.890;   -5.154;  -10.235;  647.840
374.485;   -6.864;   -7.885;  691.199
375.079;   -3.451;   -7.324;  738.685
375.674;   -2.448;   -3.494;  812.970
376.268;   -6.094;   -8.525;  691.759
376.863;  -11.778;  -10.086;  580.327
377.457;   -6.204;   -7.025;  662.490
378.052;   -8.599;   -3.585;  764.884
378.646;   -8.767;   -7.595;  741.167
379.240;   -8.186;   -8.335;  721.176
379.835;   -8.737;   -5.785;  636.978
380.429;  -10.834;   -4.335;  562.557
381.023;   -9.380;   -6.805;  779.205
381.617;  -12.239;   -9.195;  680.106
382.212;   -9.260;   -6.905;  685.303
382.806;   -9.024;   -3.745;  760.690
383.400;  -12.403;   -7.745;  672.281
383.994;  -12.050;   -9.765;  664.870
384.588;   -9.732;   -6.564;  697.701
385.182;   -9.384;   -5.344;  726.624
385.776;  -10.072;   -8.514;  706.875
386.370;  -12.618;   -9.555;  681.968
386.964;  -12.202;   -8.715;  684.155
387.558;  -10.955;   -6.174;  598.360
388.152;  -14.264;   -8.725;  681.959
388.745;  -11.439;   -7.965;  814.707
389.339;   -9.754;   -5.924;  747.642
389.933;   -9.551;   -5.524;  695.370
390.527;  -10.071;   -7.114;  859.029
391.120;  -16.254;  -10.725;  595.318
391.714;  -14.489;   -8.035;  711.633
392.308;  -11.311;   -3.574;  780.253
392.901;  -14.210;   -7.245;  642.460
393.495;  -15.292;   -9.285;  595.414
394.089;  -14.024;   -5.895;  760.452
394.682;  -15.709;   -4.295;  697.188
395.275;  -15.223;   -9.875;  719.927
395.869;  -15.554;   -8.485;  667.314
396.462;  -15.229;   -7.455;  616.609
397.056;  -11.197;   -5.424;  776.621
397.649;  -15.591;   -6.605;  731.575
398.242;  -12.535;   -8.224;  712.645
398.836;  -12.730;   -7.474;  766.408
399.429;  -13.906;   -7.094;  631.041
400.022;  -16.960;   -9.475;  665.902
400.615;  -13.817;   -7.145;  805.609
401.208;  -12.479;   -7.174;  691.451
401.802;  -15.144;   -5.515;  699.329
402.395;  -15.592;   -9.875;  683.502
402.988;  -16.265;   -8.845;  696.627
403.581;  -13.163;   -8.874;  646.878
404.174;  -11.632;   -5.324;  686.568
404.767;  -14.126;   -9.575;  638.583
405.360;  -15.965;  -10.965;  621.445
405.953;  -11.068;   -8.764;  759.034
406.545;  -12.684;   -7.514;  725.342
407.138;  -14.914;  -10.025;  618.350
407.731;  -13.456;  -10.034;  613.303
408.324;   -9.685;   -9.374;  660.554
408.917;  -11.171;   -6.534;  681.864
409.509;  -12.106;   -8.004;  740.396
410.102;  -13.339;   -9.875;  643.948
410.695;   -8.888;   -8.604;  665.758
411.287;  -10.122;   -6.794;  599.821
411.880;  -10.358;   -9.334;  585.421
412.472;  -13.117;  -10.254;  613.092
413.065;  -11.407;   -6.714;  629.408
413.657;   -9.856;   -7.234;  576.678
414.250;   -8.623;  -10.544;  646.681
414.842;   -9.843;   -9.744;  676.353
415.434;   -8.599;   -6.994;  570.463
416.027;   -4.709;   -5.893;  652.196
416.619;   -6.517;   -7.264;  713.400
417.211;   -6.298;  -10.374;  599.352
417.804;   -3.110;   -7.993;  628.499
418.396;   -7.768;   -7.234;  607.643
418.988;   -4.548;   -9.443;  659.238
419.580;   -7.099;  -10.724;  568.276
420.172;   -6.257;  -10.323;  536.196
420.764;   -2.231;   -8.793;  672.482
421.356;   -2.999;  -11.143;  636.898
421.948;   -3.398;   -8.293;  677.661
422.540;    0.846;   -7.893;  680.027
423.132;   -0.094;   -7.082;  600.641
423.724;   -3.125;   -8.653;  561.267
424.316;   -0.159;  -10.213;  621.345
424.908;    1.850;   -9.762;  591.517
425.500;    2.695;   -5.572;  647.978
426.092;    3.585;   -8.422;  648.268
426.683;    2.935;   -9.283;  684.836
427.275;    5.324;   -7.852;  641.471
427.867;    6.439;   -5.272;  668.948
428.458;    6.931;   -7.682;  732.344
429.050;    7.050;  -10.612;  680.749
429.642;    8.009;   -9.882;  743.124
430.233;    7.444;   -6.962;  569.356
430.825;    9.781;   -6.842;  724.809
431.416;    7.793;   -9.672;  698.241
432.008;   10.706;   -6.552;  651.723
432.599;   11.229;   -6.891;  656.073
433.190;    8.503;  -10.912;  637.670
433.782;    7.911;  -11.172;  590.395
434.373;   14.496;   -6.061;  884.765
434.964;   13.390;   -8.251;  602.920
435.556;   11.612;   -9.722;  634.537
436.147;   15.357;   -9.082;  758.490
436.738;   14.700;   -8.041;  701.099
437.329;   18.904;   -7.341;  721.723
437.920;   12.461;   -8.162;  666.688
438.511;   13.346;  -11.802;  564.526
439.103;   18.566;  -10.191;  623.998
439.694;   20.707;   -7.601;  681.583
440.285;   21.496;   -8.541;  764.432
440.876;   19.751;   -9.751;  845.738
441.466;   19.262;   -9.401;  575.162
442.057;   24.124;   -7.760;  665.814
442.648;   23.634;   -9.971;  746.255
443.239;   22.268;  -11.001;  620.477
443.830;   26.091;   -7.990;  704.958
444.421;   28.164;   -7.910;  655.474
445.011;   24.987;   -8.131;  693.619
445.602;   24.568;   -7.111;  743.126
446.193;   25.340;  -10.920;  488.117
446.783;   30.416;   -6.500;  640.397
447.374;   26.248;   -8.671;  692.759
447.964;   27.929;  -10.781;  713.770
448.555;   35.217;   -9.650;  822.742
449.145;   31.320;   -8.660;  662.853
449.736;   32.163;   -8.990;  803.179
450.326;   32.906;   -9.500;  713.626
450.917;   37.067;   -8.680;  675.324
451.507;   35.725;   -7.520;  600.661
452.097;   37.308;   -8.590;  746.267
452.688;   38.783;  -11.340;  742.160
453.278;   38.067;  -10.100;  566.840
453.868;   41.200;   -6.019;  793.550
454.458;   39.916;   -9.440;  651.141
455.048;   40.795;  -10.560;  711.783
455.639;   40.986;  -11.799;  567.096
456.229;   45.165;   -6.899;  710.694
456.819;   47.347;   -7.389;  751.158
457.409;   48.542;  -11.119;  773.993
457.999;   50.034;   -9.289;  737.505
458.589;   49.021;   -6.139;  686.606
459.179;   50.292;   -8.729;  717.658
459.769;   48.830;   -9.789;  627.099
460.358;   53.685;  -10.259;  797.262
460.948;   52.518;   -7.299;  689.503
461.538;   54.746;  -10.289;  660.677
462.128;   52.983;  -11.269;  664.934
462.717;   59.086;   -9.368;  710.326
463.307;   61.168;   -7.908;  705.846
463.897;   57.818;   -9.599;  656.942
464.486;   57.652;   -9.769;  837.128
465.076;   61.820;   -8.048;  733.776
465.666;   64.156;   -9.358;  652.900
466.255;   62.855;   -7.919;  785.651
466.845;   62.822;  -11.689;  666.749
467.434;   65.032;   -7.818;  725.873
468.023;   65.711;   -7.678;  658.357
468.613;   63.580;  -10.939;  713.946
469.202;   68.485;  -10.118;  646.507
469.791;   71.739;   -9.108;  737.811
470.381;   73.121;   -6.058;  742.813
470.970;   73.240;  -10.428;  711.099
471.559;   74.555;  -10.268;  733.291
472.148;   76.929;   -8.448;  675.737
472.738;   78.662;   -6.917;  765.466
473.327;   78.263;  -11.978;  637.529
473.916;   78.740;  -11.888;  737.446
474.505;   81.355;   -9.437;  751.703
475.094;   84.983;   -6.747;  806.570
475.683;   84.668;   -9.367;  797.699
476.272;   86.418;  -12.637;  730.632
476.861;   88.461;  -10.027;  706.754
477.449;   94.558;   -8.716;  728.487
478.038;   89.159;   -9.577;  692.513
478.627;   90.926;   -9.718;  714.852
479.216;   97.003;   -8.947;  769.441
479.805;   99.604;   -6.256;  783.375
480.393;   99.084;   -7.937; 1008.945
480.982;   99.019;   -7.717;  874.501
481.571;  105.245;   -9.266;  858.333
482.159;  105.326;   -7.636;  705.386
482.748;  105.439;   -9.667;  821.385
483.336;  110.703;  -10.376;  858.209
483.925;  111.008;   -7.147;  774.373
484.513;  116.034;   -7.996;  758.962
485.102;  113.849;  -10.027;  810.965
485.690;  123.091;  -10.446; 1011.050
486.278;  124.206;   -8.446;  979.329
486.867;  124.472;   -6.356;  809.662
487.455;  125.677;   -9.136;  898.229
488.043;  128.427;  -10.646;  748.361
488.631;  136.674;   -7.456; 1005.079
489.220;  140.273;   -6.636;  908.626
489.808;  140.152;  -11.036;  741.415
490.396;  148.990;  -10.246;  914.645
490.984;  153.942;   -8.556;  830.161
491.572;  162.609;   -5.886;  940.315
492.160;  167.941;   -9.486;  919.081
492.748;  180.399;  -10.976;  884.341
493.336;  202.288;   -8.776; 1019.693
493.924;  226.601;   -5.465;  958.077
494.512;  252.652;   -9.986; 1066.638
495.100;  288.113;  -10.636; 1103.280
495.687;  341.758;  -10.885; 1206.373
496.275;  401.760;   -8.126; 1150.796
496.863;  470.341;  -10.586; 1281.171
497.451;  569.768;  -11.926; 1386.805
498.038;  693.450;  -10.885; 1556.729
498.626;  796.803;   -6.315; 1741.407
499.214;  941.343;   -7.326; 2016.609
499.801; 1129.206;  -11.906; 2220.633
500.389; 1370.873;  -10.466; 2312.494
500.976; 1666.701;   -5.236; 2744.849
501.564; 2085.730;   -8.936; 3148.565
502.151; 2449.188;  -13.176; 3515.999
502.738; 2881.821;  -10.646; 3971.274
503.326; 3261.356;   -9.525; 4403.796
503.913; 3635.531;  -10.856; 5161.749
504.500; 3983.026;  -11.586; 5986.420
505.088; 4397.567;  -10.336; 6381.201
505.675; 4909.218;   -6.355; 6925.547
506.262; 5620.151;   -9.046; 7619.060
506.849; 6316.902;  -10.416; 8733.969
507.436; 6781.674;  -10.305; 9790.121
508.023; 7335.291;   -5.496; 9985.472
508.610; 7595.777;   -7.856;10434.618
509.197; 8213.581;  -10.097;11198.435
509.784; 9543.404;  -10.886;12391.194
510.371;10553.125;   -9.315;13603.713
510.958;11287.182;   -9.936;14426.586
511.545;12061.196;   -9.326;15243.775
512.132;12905.789;  -10.075;15945.876
512.719;13466.461;   -7.796;16340.369
513.305;14389.736;  -10.606;18011.766
513.892;15127.221;  -11.486;19754.971
514.479;16450.680;   -9.126;20967.805
515.066;17897.584;   -6.026;22299.793
515.652;19153.219;   -8.466;22908.660
516.239;20364.631;  -10.886;23798.875
516.825;21371.902;  -11.496;25567.275
517.412;22431.379;   -5.796;28154.959
517.998;23045.590;  -10.506;28344.111
518.585;23109.938;  -10.076;27134.219
519.171;23682.938;   -8.315;27268.576
519.758;25108.994;   -8.596;28964.129
520.344;26915.730;   -8.466;30664.494
520.930;26928.969;  -11.006;32550.605
521.516;28178.678;  -10.495;35422.895
522.103;30468.570;   -5.526;38280.004
522.689;31113.910;   -8.746;37835.117
523.275;30653.500;  -11.376;37288.613
523.861;31901.018;  -11.156;37281.395
524.447;33306.012;   -8.135;37846.949
525.033;33144.316;   -7.896;38321.949
525.619;33365.762;  -12.476;38579.285
526.205;34937.027;   -9.516;40622.875
526.791;37231.785;   -6.926;42258.836
527.377;37464.609;   -8.346;42966.902
527.963;38958.480;   -8.717;42018.949
528.549;37450.289;  -11.016;42476.828
529.135;36174.504;   -8.536;41854.852
529.721;35532.891;   -9.666;41237.711
530.306;34815.785;  -10.066;41259.445
530.892;34648.250;  -11.356;41506.047
531.478;36022.961;   -6.596;43559.613
532.063;38962.527;   -8.836;47695.563
532.649;39536.414;  -10.047;50808.324
533.235;40408.625;   -9.746;51787.500
533.820;40997.332;   -6.566;52145.035
534.406;42330.902;  -10.817;51133.488
534.991;42100.551;   -9.416;49996.805
535.576;40770.066;   -9.036;48882.852
536.162;41368.352;   -6.156;46942.285
536.747;42217.766;  -11.607;45711.746
537.333;45694.934;  -11.787;48510.180
537.918;48615.867;  -12.437;50439.891
538.503;47390.973;   -7.196;50863.711
539.088;44127.883;  -10.556;50906.922
539.673;43959.039;   -8.767;52621.965
540.259;44114.477;  -10.026;52368.094
540.844;41682.773;   -7.416;50879.109
541.429;42818.996;   -9.467;52077.777
542.014;45504.703;   -9.527;52716.695
542.599;44919.023;   -9.946;52363.281
543.184;42641.398;   -7.927;53187.137
543.769;44021.875;   -9.297;54697.605
544.354;43601.887;  -10.127;53913.914
544.938;42443.715;   -9.267;49680.164
545.523;44339.078;   -6.506;47386.277
546.108;47039.645;   -9.787;49151.949
546.693;48900.160;  -11.587;51384.637
547.278;48596.359;  -10.986;51853.254
547.862;45783.770;   -8.206;51173.750
548.447;41481.273;  -10.067;51691.395
549.031;40984.930;   -9.637;52456.703
549.616;45741.137;   -9.926;52714.516
550.201;45056.125;   -6.347;52414.598
550.785;46168.355;   -7.917;52355.059
551.370;45371.207;  -10.867;54589.453
551.954;45009.262;   -9.047;58267.348
552.538;45772.504;   -7.827;59062.176
553.123;44200.813;  -10.287;58115.285
553.707;42030.273;  -12.178;56556.285
554.291;43452.043;   -8.717;56201.668
554.876;45836.688;   -7.457;55335.762
555.460;45954.988;  -10.387;54155.703
556.044;46878.141;   -9.618;53721.484
556.628;45501.148;  -11.567;53731.016
557.212;44364.309;   -8.097;54312.531
557.796;42913.051;  -11.077;53797.773
558.380;42834.148;  -11.108;56145.984
558.964;43162.605;   -9.057;57277.930
559.548;44387.926;   -6.977;56459.641
560.132;42827.328;  -11.457;54434.543
560.716;41512.617;  -11.378;54800.617
561.300;42598.828;   -9.577;57606.945
561.884;43805.984;   -7.127;58972.445
562.467;42235.953;   -7.118;57327.570
563.051;41527.008;  -13.358;54962.434
563.635;42433.707;  -10.178;52594.473
564.219;42669.469;   -7.837;50610.410
564.802;43544.488;  -11.398;49551.180
565.386;43465.320;  -12.788;48370.953
565.969;42842.316;   -9.077;48178.871
566.553;42110.750;   -6.207;49957.305
567.136;42677.883;   -8.568;50369.594
567.720;39147.121;  -11.868;49492.004
568.303;37166.512;   -8.268;50616.352
568.887;37182.266;   -8.698;50727.148
569.470;37458.820;   -6.808;51698.379
570.053;36124.801;  -13.188;52122.078
570.637;34619.852;  -12.037;52536.438
571.220;34522.555;   -8.577;51186.098
571.803;35093.156;   -8.498;51032.762
572.386;37135.988;  -10.498;49609.887
572.969;39489.777;   -9.388;48285.926
573.552;37714.277;   -8.338;47624.285
574.135;36370.488;   -8.518;45498.641
574.718;34059.359;  -13.628;41970.434
575.301;33015.762;  -10.893;41447.137
575.884;31972.162;   -8.158;40923.836
576.467;32924.082;  -10.328;45267.723
577.050;34531.457;  -13.058;48175.543
577.633;35447.359;   -9.458;47729.328
578.216;33958.770;   -8.928;47579.793
578.799;32879.816;   -9.358;47820.996
579.381;32317.598;  -11.388;48115.551
579.964;31409.332;  -11.718;47333.766
580.547;33511.570;   -8.588;46668.969
581.129;34776.457;   -8.859;44466.141
581.712;35589.902;  -10.729;44164.922
582.294;36127.539;  -11.118;46477.855
582.877;35938.141;   -5.218;48244.254
583.459;33533.508;   -8.679;47437.895
584.042;31594.086;  -10.709;46943.219
584.624;32070.490;  -11.669;46792.227
585.206;31576.664;   -8.218;46557.250
585.789;31457.080;  -10.569;45793.773
586.371;33930.699;  -11.859;43836.391
586.953;34138.598;  -10.719;42972.492
587.536;34840.484;   -7.198;42487.211
588.118;33945.844;   -8.720;42086.414
588.700;28883.525;  -10.439;43389.930
589.282;26464.377;   -9.198;43646.039
589.864;27530.979;   -9.199;43438.109
590.446;30885.824;  -11.319;43151.926
591.028;33112.824;  -11.159;42781.867
591.610;33234.008;  -11.779;42839.098
592.192;31064.727;   -7.668;42820.402
592.774;29639.895;  -11.949;40724.277
593.356;28399.125;  -12.129;39874.789
593.937;27330.082;  -10.669;39980.648
594.519;29455.402;   -6.509;42069.633
595.101;31647.193;  -10.849;42976.031
