source
Integration time [ms]: 4415.405
Averaging Nr. [scans]: 10
Smoothing Nr. [pixels]: 0
Data measured with spectrometer [name]: 7414430SP
Wave   ;Sample   ;Dark     ;Reference
[nm]   ;[counts] ;[counts] ;[counts] 

288.544; 5734.721; 5481.567;    6.613
289.143; 4702.191; 4445.805;   14.216
289.742; 6135.005; 5944.782;   11.816
290.341; 5849.826; 5549.822;   -4.936
290.940; 5371.085; 5126.334;    0.852
291.538; 6766.223; 6565.967;    1.792
292.137; 5976.298; 5724.192;    6.262
292.736; 7810.626; 7451.822;    8.164
293.335; 5456.552; 5236.041;   -6.418
293.934; 5905.835; 5668.136;   -2.904
294.532; 8425.887; 8170.262;   -5.162
295.131; 6619.017; 6327.777;  -10.283
295.730; 6383.883; 6165.880;  -16.141
296.328; 6143.668; 5919.741;  -14.740
296.927; 6102.915; 5823.527;   -8.768
297.525; 6071.499; 5870.784;  -15.255
298.124; 4943.328; 4719.534;  -22.063
298.722; 5915.604; 5667.405;  -14.796
299.321; 5469.872; 5160.111;  -10.466
299.919; 5883.016; 5655.808;  -10.979
300.518; 5347.344; 5062.438;  -12.077
301.116; 5349.635; 5088.125;  -13.509
301.715; 5710.782; 5476.557;  -11.939
302.313; 5501.837; 5256.375;  -15.424
302.911; 5828.237; 5621.171;  -19.833
303.509; 7693.900; 7470.388;   -3.567
304.108; 6003.513; 5754.438;   -9.553
304.706; 6468.888; 6182.500;   -8.582
305.304; 6580.911; 6357.468;  -12.348
305.902; 6242.264; 5985.563;  -14.411
306.500; 5824.519; 5621.059;   -7.194
307.098; 6001.008; 5766.937;   -9.322
307.696; 6401.460; 6148.666;  -19.192
308.294; 5922.867; 5652.933;   -9.736
308.892; 6137.617; 5935.455;  -15.482
309.490; 5672.763; 5442.755;  -14.107
310.088; 6530.513; 6295.396;  -15.862
310.686; 6675.931; 6399.270;  -10.781
311.284; 6292.987; 6134.692;  -14.878
311.882; 5804.754; 5647.399;   -9.948
312.480; 5619.205; 5377.040;  -15.503
313.078; 6752.299; 6571.419;  -17.262
313.675; 5540.418; 5344.059;   -3.694
314.273; 6654.896; 6491.006;  -18.246
314.871; 4564.131; 4387.228;  -15.190
315.468; 5247.038; 5086.171;  -12.633
316.066; 5617.428; 5378.019;   -5.765
316.664; 5284.292; 5124.990;  -14.317
317.261; 7725.287; 7501.531;   -8.677
317.859; 6514.876; 6383.247;  -11.804
318.456; 7059.534; 6947.801;   -3.107
319.054; 6595.742; 6478.350;   -3.062
319.651; 6304.263; 6074.594;   -6.706
320.249; 6952.263; 6764.594;   -5.206
320.846; 5963.602; 5767.831;   -4.679
321.443; 7174.107; 7003.613;   -7.920
322.041; 7038.362; 6863.432;  -14.105
322.638; 5949.713; 5873.557;   -6.263
323.235; 5485.337; 5353.375;   -7.424
323.833; 6288.314; 6144.042;  -14.765
324.430; 5005.897; 4823.814;  -10.550
325.027; 7600.555; 7492.045;   -9.951
325.624; 5209.036; 5037.771;   -3.712
326.221; 5636.043; 5515.481;   -9.368
326.818; 6942.467; 6752.095;   -5.637
327.415; 6096.534; 5883.005;   -6.699
328.012; 5519.222; 5293.117;   -5.713
328.609; 5846.189; 5667.824;   -9.983
329.206; 6443.042; 6302.553;   -7.154
329.803; 5945.431; 5770.431;   -1.682
330.400; 5571.397; 5373.857;   -2.741
330.997; 6616.911; 6398.510;   -4.339
331.594; 6423.016; 6309.646;  -10.278
332.191; 5703.672; 5513.435;   -6.967
332.787; 6814.716; 6623.131;   -0.480
333.384; 5994.295; 5864.241;  -10.333
333.981; 6568.461; 6493.301;  -19.900
334.578; 5472.206; 5197.644;  -19.816
335.174; 5677.739; 5451.614;  -15.844
335.771; 6781.056; 6559.961;  -12.670
336.367; 5605.335; 5394.394;  -21.124
336.964; 6429.878; 6137.810;  -18.226
337.561; 5837.662; 5655.582;  -13.311
338.157; 7599.160; 7429.612;  -19.006
338.754; 6479.519; 6305.286;  -19.418
339.350; 5754.193; 5531.421;  -29.433
339.946; 6168.292; 5908.979;  -16.622
340.543; 6955.937; 6726.633;  -16.744
341.139; 5822.179; 5622.079;  -21.841
341.735; 6418.546; 6137.947;  -25.012
342.332; 5569.167; 5311.191;  -19.156
342.928; 6542.893; 6365.379;  -20.443
343.524; 6373.943; 6140.857;  -14.397
344.120; 6103.751; 6034.729;  -20.654
344.716; 5783.478; 5567.636;   -5.730
345.313; 6651.906; 6491.590;  -10.929
345.909; 4946.750; 4700.448;  -19.843
346.505; 6101.065; 5954.910;  -19.645
347.101; 6885.305; 6646.147;   -9.618
347.697; 6519.132; 6396.497;  -10.305
348.293; 4940.929; 4852.084;  -23.189
348.889; 6156.047; 5965.240;  -18.418
349.485; 5512.542; 5374.457;  -10.476
350.081; 6418.063; 6229.540;  -17.320
350.676; 5665.400; 5471.969;  -21.088
351.272; 6752.977; 6672.840;  -12.821
351.868; 6388.684; 6170.107;  -13.165
352.464; 5900.683; 5717.784;  -12.464
353.059; 5202.081; 5013.372;  -22.547
353.655; 6505.442; 6246.942;   -9.379
354.251; 6269.355; 6029.314;   -8.266
354.846; 6137.317; 6051.520;  -17.705
355.442; 6180.604; 6058.985;   -9.317
356.038; 6178.109; 6001.648;  -11.049
356.633; 5958.789; 5753.728;  -10.006
357.229; 5944.691; 5792.494;  -13.120
357.824; 5795.052; 5618.256;  -15.647
358.420; 5495.931; 5342.335;  -19.204
359.015; 5620.025; 5433.553;  -12.263
359.610; 6395.334; 6199.748;  -16.421
360.206; 4803.355; 4613.949;  -20.074
360.801; 5182.771; 4989.573;  -13.277
361.396; 5976.091; 5775.979;   -5.822
361.992; 5465.452; 5307.256;  -11.247
362.587; 5471.845; 5357.827;  -21.502
363.182; 5670.825; 5457.229;   -7.461
363.777; 6186.319; 6069.447;   -8.719
364.372; 6143.858; 6050.361;  -14.590
364.967; 5638.908; 5475.840;  -15.145
365.563; 6853.244; 6697.708;   -7.192
366.158; 5591.054; 5421.507;   -5.662
366.753; 5296.057; 5143.757;   -8.378
367.348; 6280.229; 6005.246;  -14.990
367.942; 5731.832; 5506.497;   -6.005
368.537; 6309.545; 6153.150;  -11.504
369.132; 5854.513; 5757.342;  -10.576
369.727; 5195.469; 5037.765;  -12.573
370.322; 4737.811; 4595.091;  -11.560
370.917; 5950.700; 5842.969;  -10.388
371.511; 7468.182; 7311.299;   -9.161
372.106; 6677.708; 6524.840;  -10.245
372.701; 4802.010; 4616.606;  -10.158
373.296; 7365.134; 7212.424;   -4.719
373.890; 5390.645; 5243.827;  -11.802
374.485; 5860.273; 5755.458;  -13.500
375.079; 6332.156; 6165.272;   -6.276
375.674; 6989.895; 6819.348;   -0.447
376.268; 5781.104; 5693.824;   -6.916
376.863; 4851.742; 4784.930;  -14.483
377.457; 5605.774; 5440.104;   -6.903
378.052; 6571.722; 6456.656;   -9.844
378.646; 6416.645; 6323.666;  -12.601
379.240; 6215.361; 6030.570;  -14.715
379.835; 5392.549; 5223.005;  -12.331
380.429; 4660.498; 4499.880;   -9.074
381.023; 6787.477; 6686.475;   -1.729
381.617; 5845.932; 5705.293;  -13.714
382.212; 5868.854; 5704.022;   -7.060
382.806; 6594.474; 6396.104;   -2.303
383.400; 5849.989; 5801.524;   -0.815
383.994; 5783.806; 5653.428;   -4.429
384.588; 6069.282; 5945.137;   -6.261
385.182; 6354.387; 6274.639;    0.008
385.776; 6256.223; 6114.302;   -3.247
386.370; 5948.120; 5866.729;   -1.030
386.964; 5970.837; 5861.118;   -1.346
387.558; 5161.748; 5033.563;   -2.020
388.152; 5994.180; 5824.887;   -5.345
388.745; 7298.541; 7222.972;   -2.774
389.339; 6493.944; 6398.385;    3.510
389.933; 6003.191; 5911.655;    5.280
390.527; 7796.543; 7723.223;    2.610
391.120; 5208.232; 5074.455;   -7.914
391.714; 6219.945; 6149.989;   -1.903
392.308; 6978.228; 6811.480;    6.023
392.901; 5679.531; 5654.012;   -4.103
393.495; 5283.590; 5211.686;    3.284
394.089; 6946.694; 6843.864;    8.655
394.682; 6285.071; 6168.854;    2.312
395.275; 6495.230; 6403.851;   -7.402
395.869; 6026.055; 5942.626;   -1.072
396.462; 5501.823; 5435.979;    6.454
397.056; 6950.189; 6978.566;    8.494
397.649; 6652.831; 6572.689;    1.599
398.242; 6460.080; 6452.210;    3.153
398.836; 6956.489; 6924.404;   11.395
399.429; 5583.303; 5454.381;   14.695
400.022; 5998.241; 5910.649;    3.627
400.615; 7424.147; 7402.917;    8.383
401.208; 6184.446; 6070.474;   13.295
401.802; 6349.857; 6342.039;    6.211
402.395; 6236.341; 6126.649;    7.227
402.988; 6319.559; 6313.481;    2.700
403.581; 5713.270; 5668.250;   11.225
404.174; 6097.085; 6065.711;   18.922
404.767; 5643.978; 5544.959;   14.169
405.360; 5639.987; 5603.596;    8.999
405.953; 6900.668; 6861.483;   13.138
406.545; 6627.440; 6542.691;   13.937
407.138; 5566.963; 5510.982;   10.869
407.731; 5530.964; 5483.144;   12.768
408.324; 5915.085; 5857.034;   22.921
408.917; 6185.887; 6175.639;   15.308
409.509; 6802.154; 6749.184;   12.239
410.102; 5875.996; 5889.791;   13.741
410.695; 6004.024; 5923.110;   20.249
411.287; 5413.061; 5452.936;   21.793
411.880; 5251.851; 5246.813;   22.965
412.472; 5545.291; 5503.170;   15.082
413.065; 5803.899; 5735.526;   23.423
413.657; 5192.035; 5136.232;   21.077
414.250; 5850.082; 5801.180;   12.349
414.842; 6117.914; 6125.665;   20.423
415.434; 5146.888; 5145.124;   19.906
416.027; 5855.021; 5797.902;   26.574
416.619; 6525.216; 6455.239;   15.705
417.211; 5381.690; 5399.212;   17.791
417.804; 5637.554; 5649.034;   30.244
418.396; 5534.963; 5505.186;   24.177
418.988; 5975.531; 5929.539;   24.904
419.580; 5110.032; 5079.981;   20.692
420.172; 4875.649; 4804.532;   22.275
420.764; 6043.436; 6028.040;   26.773
421.356; 5781.127; 5735.846;   25.731
421.948; 6108.878; 6057.486;   24.876
422.540; 6081.412; 5988.426;   30.042
423.132; 5396.143; 5316.469;   32.728
423.724; 4974.644; 4990.750;   21.317
424.316; 5605.923; 5562.991;   29.359
424.908; 5326.076; 5306.763;   28.798
425.500; 5866.017; 5839.766;   30.512
426.092; 5814.584; 5813.795;   26.741
426.683; 6289.928; 6207.331;   27.029
427.275; 5761.303; 5706.112;   32.611
427.867; 5947.491; 5901.224;   33.796
428.458; 6623.468; 6570.214;   34.453
429.050; 6167.525; 6174.799;   34.255
429.642; 6719.093; 6702.152;   39.082
430.233; 4937.728; 4973.373;   41.138
430.825; 6622.907; 6574.290;   31.581
431.416; 6338.439; 6312.776;   35.755
432.008; 5783.824; 5785.518;   40.566
432.599; 5806.602; 5835.669;   46.322
433.190; 5690.476; 5673.924;   46.897
433.782; 5005.580; 5016.940;   41.069
434.373; 7932.037; 7932.891;   48.778
434.964; 5284.008; 5238.937;   50.078
435.556; 5631.293; 5643.313;   52.381
436.147; 6841.168; 6783.538;   38.251
436.738; 6255.071; 6216.626;   47.237
437.329; 6390.448; 6411.497;   61.304
437.920; 5849.045; 5909.043;   48.611
438.511; 4900.774; 4911.158;   44.910
439.103; 5433.133; 5442.359;   62.404
439.694; 6003.523; 6077.560;   63.075
440.285; 6583.029; 6606.342;   61.033
440.876; 7708.326; 7624.930;   57.249
441.466; 4940.375; 4938.128;   61.306
442.057; 5791.538; 5784.021;   65.773
442.648; 6670.852; 6629.352;   65.676
443.239; 5386.496; 5509.049;   55.963
443.830; 6228.416; 6119.850;   69.631
444.421; 5703.300; 5690.269;   69.943
445.011; 6087.063; 6044.240;   72.791
445.602; 6539.498; 6527.138;   68.848
446.193; 4051.985; 4025.969;   80.044
446.783; 5395.678; 5385.583;   82.599
447.374; 5984.374; 5929.362;   77.419
447.964; 6256.947; 6208.335;   72.605
448.555; 7164.857; 7223.662;   82.041
449.145; 5694.473; 5738.081;   76.230
449.736; 7032.656; 7014.854;   75.545
450.326; 6142.742; 6179.876;   67.945
450.917; 5767.949; 5723.790;   77.598
451.507; 5083.617; 5082.658;   68.027
452.097; 6504.924; 6490.368;   67.771
452.688; 6325.265; 6304.533;   62.884
453.278; 4527.676; 4527.655;   65.512
453.868; 6950.250; 6909.113;   71.796
454.458; 5533.341; 5508.596;   60.956
455.048; 6105.812; 6086.480;   62.356
455.639; 4689.495; 4670.133;   58.782
456.229; 6033.834; 6017.371;   65.209
456.819; 6390.097; 6310.384;   61.466
457.409; 6657.283; 6598.245;   59.967
457.999; 6195.779; 6187.713;   58.093
458.589; 5658.145; 5658.654;   59.536
459.179; 6070.808; 6018.506;   55.994
459.769; 5185.717; 5190.143;   43.624
460.358; 6780.067; 6708.826;   46.978
460.948; 5744.232; 5771.766;   49.821
461.538; 5438.139; 5352.872;   54.678
462.128; 5500.134; 5494.371;   49.309
462.717; 5832.668; 5833.634;   52.774
463.307; 5819.965; 5816.940;   48.101
463.897; 5326.178; 5357.948;   45.606
464.486; 7172.819; 7205.232;   45.010
465.076; 6074.905; 6073.297;   45.519
465.666; 5205.171; 5225.046;   50.058
466.255; 6587.255; 6590.100;   44.463
466.845; 5350.463; 5408.971;   41.206
467.434; 5953.958; 5963.350;   44.847
468.023; 5193.342; 5214.607;   46.760
468.613; 5854.844; 5777.654;   39.736
469.202; 5162.199; 5139.515;   46.461
469.791; 5905.844; 5905.020;   47.944
470.381; 5892.961; 5864.085;   47.529
470.970; 5655.154; 5605.980;   43.773
471.559; 5980.873; 5959.650;   41.646
472.148; 5260.134; 5252.221;   37.914
472.738; 6090.512; 6089.373;   48.071
473.327; 4866.684; 4874.257;   47.871
473.916; 5882.919; 5828.759;   37.716
474.505; 5970.300; 5974.484;   40.256
475.094; 6500.441; 6482.811;   43.269
475.683; 6311.637; 6371.471;   36.499
476.272; 5677.716; 5731.389;   44.542
476.861; 5440.180; 5407.887;   42.297
477.449; 5562.083; 5546.784;   46.878
478.038; 5228.057; 5151.392;   35.156
478.627; 5451.606; 5446.267;   42.514
479.216; 5894.732; 5893.335;   43.937
479.805; 5992.624; 5937.625;   51.393
480.393; 8193.089; 8145.920;   53.239
480.982; 6948.529; 6924.600;   38.955
481.571; 6687.218; 6654.682;   45.436
482.159; 5109.008; 5077.721;   51.007
482.748; 6254.909; 6295.164;   49.695
483.336; 6522.069; 6456.484;   48.280
483.925; 5519.371; 5467.250;   47.166
484.513; 5473.038; 5475.321;   55.404
485.102; 5973.875; 5977.104;   54.238
485.690; 7849.002; 7717.101;   55.748
486.278; 7549.961; 7496.097;   55.934
486.867; 5795.366; 5782.952;   57.106
487.455; 6611.955; 6500.668;   56.979
488.043; 5118.729; 5053.642;   57.564
488.631; 7532.190; 7444.375;   57.432
489.220; 6537.646; 6447.516;   63.646
489.808; 4868.045; 4790.870;   65.449
490.396; 6465.499; 6508.084;   61.977
490.984; 5483.876; 5490.074;   68.834
491.572; 6502.027; 6475.361;   70.775
492.160; 6092.828; 6070.642;   67.564
492.748; 5642.193; 5624.583;   66.808
493.336; 6580.846; 6545.354;   79.747
493.924; 5597.240; 5510.734;   88.688
494.512; 6510.178; 6351.001;   84.120
495.100; 6306.788; 6290.639;   86.250
495.687; 6728.442; 6684.661;  103.074
496.275; 5410.979; 5360.486;  108.717
496.863; 5685.147; 5635.797;  107.035
497.451; 5557.367; 5572.718;  117.993
498.038; 5921.465; 5881.833;  120.116
498.626; 5648.473; 5611.704;  143.059
499.214; 6049.961; 5977.097;  153.434
499.801; 5914.763; 5898.863;  175.121
500.389; 4821.207; 4766.602;  185.617
500.976; 6187.769; 6136.526;  215.789
501.564; 5959.078; 5944.840;  240.321
502.151; 4260.322; 4163.698;  267.007
502.738; 5592.586; 5479.358;  317.961
503.326; 5715.750; 5638.856;  361.216
503.913; 5989.848; 6019.282;  401.433
504.500; 6173.325; 6033.949;  446.492
505.088; 5208.200; 5161.012;  512.063
505.675; 5710.683; 5645.826;  586.387
506.262; 5653.063; 5691.702;  671.021
506.849; 5812.472; 5799.219;  759.062
507.436; 6599.168; 6604.688;  849.788
508.023; 5770.826; 5724.595;  944.288
508.610; 6447.040; 6444.249; 1020.690
509.197; 6220.987; 6140.315; 1089.052
509.784; 5852.441; 5717.176; 1133.776
510.371; 4840.039; 4775.968; 1165.501
510.958; 5960.718; 5882.843; 1251.735
511.545; 6889.231; 6857.054; 1350.248
512.132; 5829.175; 5698.793; 1525.945
512.719; 5182.448; 5104.282; 1834.933
513.305; 5343.788; 5310.962; 1965.349
513.892; 6813.186; 6702.550; 1963.265
514.479; 5947.846; 5832.516; 2046.446
515.066; 6554.681; 6464.414; 2252.803
515.652; 5927.031; 5881.377; 2567.247
516.239; 6344.207; 6313.117; 2636.919
516.825; 4937.852; 4921.298; 2482.304
517.412; 7359.977; 7283.559; 2427.031
517.998; 5691.357; 5628.919; 2540.463
518.585; 5597.022; 5531.698; 2609.007
519.171; 5985.340; 5920.734; 2842.088
519.758; 5015.309; 4972.529; 3090.703
520.344; 6488.241; 6431.176; 3176.076
520.930; 5152.046; 5097.474; 3295.037
521.516; 6220.258; 6125.727; 3500.959
522.103; 6845.237; 6779.321; 3736.704
522.689; 5644.506; 5566.632; 3971.022
523.275; 6658.770; 6608.807; 4213.778
523.861; 5709.658; 5668.242; 4190.361
524.447; 6607.195; 6462.714; 4070.602
525.033; 6701.382; 6618.856; 4088.892
525.619; 5373.316; 5328.593; 4416.851
526.205; 5013.104; 5023.866; 4836.835
526.791; 5661.838; 5627.483; 4885.903
527.377; 5459.451; 5337.652; 4544.907
527.963; 6015.324; 5968.302; 4321.995
528.549; 6106.498; 6039.599; 4473.979
529.135; 5319.415; 5226.988; 4788.663
529.721; 5895.698; 5866.922; 4888.577
530.306; 8042.998; 7995.599; 4775.779
530.892; 5578.094; 5557.906; 4793.906
531.478; 5480.560; 5415.170; 4956.948
532.063; 5214.204; 5180.705; 5136.936
532.649; 7291.828; 7262.157; 5336.867
533.235; 5252.239; 5212.764; 5748.092
533.820; 6740.113; 6608.546; 6456.875
534.406; 5747.213; 5666.180; 6590.167
534.991; 5281.792; 5289.655; 6179.622
535.576; 5767.639; 5694.926; 6098.691
536.162; 8095.504; 7974.028; 6441.234
536.747; 4991.534; 4940.101; 6816.224
537.333; 5345.487; 5302.154; 6889.752
537.918; 5795.840; 5755.368; 7154.280
538.503; 5428.802; 5371.101; 7150.848
539.088; 6128.665; 6099.467; 7253.308
539.673; 5591.054; 5513.345; 7625.180
540.259; 5402.653; 5372.741; 8226.793
540.844; 4742.682; 4634.856; 8745.092
541.429; 7124.072; 7120.016; 8762.553
542.014; 4928.452; 4949.771; 8871.497
542.599; 6104.793; 6063.583; 8886.008
543.184; 5097.789; 5041.082; 9079.139
543.769; 5432.540; 5326.045; 9076.182
544.354; 5612.383; 5529.138; 8354.081
544.938; 6072.736; 5998.352; 8236.809
545.523; 7110.241; 7062.691; 8222.179
546.108; 5811.968; 5738.999; 8114.082
546.693; 5755.506; 5653.590; 8535.912
547.278; 5800.091; 5769.494; 9238.322
547.862; 5783.251; 5704.975; 9034.405
548.447; 6513.321; 6339.890; 7795.011
549.031; 5596.166; 5521.425; 7485.099
549.616; 6052.579; 5912.444; 7626.308
550.201; 5444.493; 5297.260; 7627.909
550.785; 6301.919; 6214.963; 7859.125
551.370; 5076.029; 4994.762; 7990.654
551.954; 6520.470; 6431.926; 8196.468
552.538; 6362.752; 6355.256; 7959.495
553.123; 5448.519; 5310.801; 7964.826
553.707; 5637.786; 5611.185; 8515.957
554.291; 6814.862; 6768.055; 8724.024
554.876; 6459.550; 6346.844; 8524.211
555.460; 5446.200; 5443.484; 8704.456
556.044; 5397.783; 5278.934; 9141.473
556.628; 5861.895; 5740.702; 9250.197
557.212; 6714.875; 6627.428; 9444.237
557.796; 5667.753; 5621.699; 9379.783
558.380; 6159.399; 6056.000; 9353.658
558.964; 5960.878; 5879.121; 9210.310
559.548; 5035.930; 4817.085; 8475.153
560.132; 5618.424; 5477.422; 7954.084
560.716; 5174.189; 5065.040; 7489.529
561.300; 5099.944; 4919.223; 7211.952
561.884; 6316.192; 6281.613; 7141.313
562.467; 6271.738; 6136.076; 7155.386
563.051; 5922.042; 5819.092; 7323.158
563.635; 5754.906; 5635.267; 7709.114
564.219; 5852.715; 5793.623; 7678.855
564.802; 6341.195; 6082.983; 7376.187
565.386; 6010.854; 5788.142; 7054.372
565.969; 6947.909; 6725.002; 6589.196
566.553; 7606.612; 7384.373; 6279.371
567.136; 6828.932; 6652.970; 5967.930
567.720; 6043.321; 5855.687; 5660.703
568.303; 6261.220; 6024.082; 5648.615
568.887; 6124.402; 5900.250; 5618.443
569.470; 6286.754; 6009.495; 5411.875
570.053; 6585.083; 6312.610; 5149.274
570.637; 5615.666; 5194.587; 5122.798
571.220; 6712.141; 6360.649; 4957.369
571.803; 7819.719; 7391.436; 4933.018
572.386; 6065.654; 5532.818; 4840.973
572.969; 6108.067; 5597.191; 4592.886
573.552; 6304.481; 5723.006; 4348.387
574.135; 5722.309; 5165.314; 4002.290
574.718; 5970.940; 5343.841; 3654.773
575.301; 6023.773; 5304.195; 3502.288
575.884; 6076.607; 5264.548; 3349.803
576.467; 7487.021; 6533.687; 3191.403
577.050; 7082.776; 5972.505; 3062.418
577.633; 8445.808; 7248.194; 3214.200
578.216; 6947.938; 5558.591; 3284.889
578.799; 7060.953; 5724.172; 3189.777
579.381; 8979.507; 7434.709; 3064.502
579.964; 6931.585; 5321.185; 2888.357
580.547; 7836.599; 5915.515; 2905.760
581.129; 9007.972; 6835.004; 2966.849
581.712; 8376.608; 6015.829; 2887.292
582.294; 8324.417; 5849.670; 2771.631
582.877;10243.465; 7448.779; 2711.602
583.459; 8759.357; 5788.865; 2577.049
584.042; 8970.320; 5660.878; 2454.707
584.624; 8788.236; 5359.783; 2305.893
585.206; 8132.215; 4502.581; 2189.546
585.789; 9178.768; 5443.987; 2112.577
586.371; 9917.598; 6153.545; 2153.065
586.953;10360.921; 6358.040; 2197.806
587.536;11083.638; 6688.591; 2105.489
588.118;10347.133; 5611.886; 1963.911
588.700;12080.967; 6837.664; 1843.179
589.282;11892.417; 6205.185; 1813.834
589.864;11916.504; 5914.974; 1777.620
590.446;11081.023; 4743.410; 1733.780
591.028;12690.834; 5847.532; 1676.008
591.610;12144.414; 4786.935; 1631.649
592.192;13757.998; 5910.192; 1632.362
592.774;12979.234; 5196.694; 1569.507
593.356;13300.215; 5367.054; 1524.539
593.937;13974.833; 5418.089; 1569.720
594.519;16063.886; 6522.980; 1569.049
595.101;14978.842; 4808.242; 1545.452
