
Integration time [ms]:   3.276
Averaging Nr. [scans]: 1000
Smoothing Nr. [pixels]: 0
Data measured with spectrometer [name]: 7414430SP
Wave   ;Sample   ;Dark     ;Reference
[nm]   ;[counts] ;[counts] ;[counts] 

288.544;  149.325;    7.793;  793.890
289.143;  152.952;    7.462;  681.602
289.742;  153.350;    8.602;  828.814
290.341;  138.092;    1.321;  789.841
290.940;  128.145;   -0.709;  730.702
291.538;  128.796;    0.881;  881.108
292.137;  128.792;    0.122;  792.581
292.736;  133.446;   -1.929;  975.101
293.335;  130.103;   -8.229;  735.086
293.934;  130.677;   -5.279;  781.677
294.532;  128.688;   -1.369; 1031.958
295.131;  114.168;   -7.641;  834.394
295.730;  114.971;   -8.420;  809.588
296.328;  114.394;   -5.611;  783.442
296.927;  114.743;   -5.781;  779.652
297.525;  115.468;   -6.361;  781.236
298.124;  107.134;  -11.382;  654.009
298.722;  109.772;   -7.641;  761.933
299.321;  108.012;   -6.811;  708.597
299.919;  105.415;   -6.991;  751.918
300.518;  103.125;  -10.362;  689.338
301.116;  105.238;   -9.581;  691.381
301.715;  103.656;   -4.891;  730.222
302.313;  102.915;   -8.801;  704.943
302.911;   98.682;   -8.522;  733.830
303.509;  104.088;   -6.171;  925.627
304.108;  101.482;   -7.311;  760.383
304.706;  101.133;   -8.321;  801.664
305.304;   95.277;  -10.222;  796.707
305.902;  100.886;   -6.021;  784.484
306.500;   96.527;   -4.971;  728.200
307.098;   94.976;   -7.061;  746.560
307.696;   93.792;   -8.801;  780.432
308.294;   94.162;   -6.411;  731.359
308.892;   95.605;   -2.901;  759.769
309.490;   91.844;   -5.041;  712.161
310.088;   90.972;   -5.002;  788.444
310.686;   94.216;   -2.041;  821.749
311.284;   89.953;   -2.351;  766.040
311.882;   87.112;   -4.422;  731.225
312.480;   85.197;   -4.192;  697.167
313.078;   85.361;   -1.172;  808.331
313.675;   86.125;   -2.601;  691.600
314.273;   82.059;   -1.312;  797.837
314.871;   81.644;   -3.942;  589.829
315.468;   79.816;   -2.802;  652.090
316.066;   82.049;   -0.701;  694.427
316.664;   75.370;   -4.362;  656.351
317.261;   79.726;   -2.872;  910.128
317.859;   74.568;   -2.022;  768.735
318.456;   75.170;   -0.531;  830.096
319.054;   70.592;   -3.912;  787.828
319.651;   70.890;   -4.752;  759.928
320.249;   69.211;   -2.602;  810.188
320.846;   66.611;   -0.821;  714.286
321.443;   64.797;   -4.642;  832.135
322.041;   61.782;   -5.002;  812.315
322.638;   59.003;   -3.982;  701.456
323.235;   59.941;   -3.411;  665.683
323.833;   57.291;   -7.361;  740.354
324.430;   53.085;   -8.611;  615.900
325.027;   53.183;   -4.061;  876.855
325.624;   52.941;   -4.031;  644.532
326.221;   49.799;   -7.481;  689.717
326.818;   50.500;   -5.281;  818.332
327.415;   53.529;   -7.460;  748.828
328.012;   52.151;   -5.510;  690.585
328.609;   51.542;   -7.880;  731.389
329.206;   49.427;   -8.331;  778.621
329.803;   49.868;   -5.121;  737.841
330.400;   52.076;   -4.510;  704.260
330.997;   53.838;   -6.441;  817.147
331.594;   52.669;   -8.831;  788.185
332.191;   57.488;   -7.621;  728.722
332.787;   60.370;   -4.591;  844.463
333.384;   58.872;   -7.412;  763.093
333.981;   58.323;   -8.293;  815.687
334.578;   60.013;   -7.052;  708.378
335.174;   63.422;   -3.102;  731.469
335.771;   62.344;   -5.943;  836.456
336.367;   60.856;   -7.393;  710.631
336.964;   63.449;   -4.063;  793.266
337.561;   60.945;   -3.813;  731.112
338.157;   57.275;   -4.654;  911.916
338.754;   55.002;   -7.934;  796.589
339.350;   53.730;   -4.414;  722.493
339.946;   54.177;   -4.664;  773.135
340.543;   46.938;   -6.375;  846.136
341.139;   42.358;   -9.815;  720.836
341.735;   40.156;   -4.526;  772.593
342.332;   38.015;   -4.895;  691.472
342.928;   38.424;   -4.295;  795.394
343.524;   32.241;   -5.476;  761.684
344.120;   28.719;   -5.856;  738.562
344.716;   31.925;   -2.155;  723.717
345.313;   29.901;   -6.275;  795.342
345.909;   25.125;   -8.815;  627.336
346.505;   26.615;   -5.305;  740.247
347.101;   26.535;   -2.674;  827.864
347.697;   26.841;   -4.344;  785.398
348.293;   21.633;   -9.975;  627.244
348.889;   23.215;   -5.774;  745.914
349.485;   21.681;   -5.004;  688.205
350.081;   23.222;   -4.704;  772.592
350.676;   18.112;   -6.635;  691.606
351.272;   22.181;   -4.504;  809.530
351.868;   21.646;   -3.914;  780.497
352.464;   19.239;   -9.044;  723.932
353.059;   16.129;   -8.314;  646.017
353.655;   18.447;   -7.024;  777.063
354.251;   19.834;   -5.343;  759.845
354.846;   14.073;   -8.604;  740.646
355.442;   12.604;   -6.945;  753.071
356.038;   14.532;   -7.564;  751.708
356.633;   14.099;   -5.814;  728.594
357.229;   11.706;   -7.364;  724.757
357.824;   10.752;   -8.024;  703.600
358.420;    9.166;   -9.384;  679.726
359.015;    9.826;   -5.104;  695.357
359.610;   10.835;   -6.854;  763.920
360.206;    4.942;  -10.185;  603.240
360.801;    8.286;   -7.054;  646.503
361.396;   10.394;   -5.034;  725.975
361.992;    5.057;   -8.284;  668.220
362.587;    3.534;   -8.625;  670.160
363.182;    5.035;   -7.674;  689.631
363.777;    5.084;   -5.164;  738.242
364.372;    5.033;   -8.604;  737.314
364.967;    2.077;   -9.055;  680.744
365.563;    6.585;   -6.114;  815.567
366.158;    2.263;   -5.814;  685.161
366.753;    3.847;   -7.854;  649.263
367.348;    1.506;   -7.804;  746.056
367.942;    2.055;   -7.954;  697.298
368.537;    0.509;   -4.984;  754.245
369.132;    0.762;   -8.564;  703.428
369.727;   -3.102;   -8.855;  638.079
370.322;   -1.862;   -6.245;  580.186
370.917;   -1.590;   -6.425;  710.646
371.511;    0.499;   -6.294;  861.834
372.106;   -2.687;   -7.685;  776.964
372.701;   -6.499;   -7.335;  585.988
373.296;   -0.862;   -4.564;  863.135
373.890;   -4.756;  -10.235;  647.840
374.485;   -6.866;   -7.885;  691.199
375.079;   -4.059;   -7.324;  738.685
375.674;   -2.098;   -3.494;  812.970
376.268;   -7.421;   -8.525;  691.759
376.863;  -12.134;  -10.086;  580.327
377.457;   -6.058;   -7.025;  662.490
378.052;   -8.061;   -3.585;  764.884
378.646;   -8.592;   -7.595;  741.167
379.240;   -9.064;   -8.335;  721.176
379.835;   -8.183;   -5.785;  636.978
380.429;  -10.027;   -4.335;  562.557
381.023;  -10.160;   -6.805;  779.205
381.617;  -12.182;   -9.195;  680.106
382.212;   -9.190;   -6.905;  685.303
382.806;   -8.488;   -3.745;  760.690
383.400;  -12.337;   -7.745;  672.281
383.994;  -13.569;   -9.765;  664.870
384.588;   -9.063;   -6.564;  697.701
385.182;   -8.124;   -5.344;  726.624
385.776;  -10.167;   -8.514;  706.875
386.370;  -13.045;   -9.555;  681.968
386.964;  -11.812;   -8.715;  684.155
387.558;  -10.883;   -6.174;  598.360
388.152;  -14.547;   -8.725;  681.959
388.745;  -11.825;   -7.965;  814.707
389.339;  -10.266;   -5.924;  747.642
389.933;   -9.882;   -5.524;  695.370
390.527;  -10.289;   -7.114;  859.029
391.120;  -15.956;  -10.725;  595.318
391.714;  -13.434;   -8.035;  711.633
392.308;  -11.474;   -3.574;  780.253
392.901;  -14.456;   -7.245;  642.460
393.495;  -15.342;   -9.285;  595.414
394.089;  -13.869;   -5.895;  760.452
394.682;  -14.879;   -4.295;  697.188
395.275;  -15.315;   -9.875;  719.927
395.869;  -16.012;   -8.485;  667.314
396.462;  -14.273;   -7.455;  616.609
397.056;  -10.707;   -5.424;  776.621
397.649;  -16.216;   -6.605;  731.575
398.242;  -12.554;   -8.224;  712.645
398.836;  -12.198;   -7.474;  766.408
399.429;  -13.152;   -7.094;  631.041
400.022;  -17.228;   -9.475;  665.902
400.615;  -14.251;   -7.145;  805.609
401.208;  -12.297;   -7.174;  691.451
401.802;  -15.100;   -5.515;  699.329
402.395;  -15.892;   -9.875;  683.502
402.988;  -16.280;   -8.845;  696.627
403.581;  -12.874;   -8.874;  646.878
404.174;  -11.197;   -5.324;  686.568
404.767;  -14.106;   -9.575;  638.583
405.360;  -16.475;  -10.965;  621.445
405.953;  -10.763;   -8.764;  759.034
406.545;  -10.751;   -7.514;  725.342
407.138;  -15.313;  -10.025;  618.350
407.731;  -13.428;  -10.034;  613.303
408.324;   -8.873;   -9.374;  660.554
408.917;  -10.994;   -6.534;  681.864
409.509;  -13.200;   -8.004;  740.396
410.102;  -13.976;   -9.875;  643.948
410.695;   -8.768;   -8.604;  665.758
411.287;   -9.342;   -6.794;  599.821
411.880;  -10.903;   -9.334;  585.421
412.472;  -13.914;  -10.254;  613.092
413.065;  -10.246;   -6.714;  629.408
413.657;   -9.457;   -7.234;  576.678
414.250;   -9.083;  -10.544;  646.681
414.842;   -9.699;   -9.744;  676.353
415.434;   -7.715;   -6.994;  570.463
416.027;   -4.398;   -5.893;  652.196
416.619;   -6.562;   -7.264;  713.400
417.211;   -6.320;  -10.374;  599.352
417.804;   -3.914;   -7.993;  628.499
418.396;   -7.568;   -7.234;  607.643
418.988;   -5.869;   -9.443;  659.238
419.580;   -7.924;  -10.724;  568.276
420.172;   -5.717;  -10.323;  536.196
420.764;   -2.443;   -8.793;  672.482
421.356;   -3.645;  -11.143;  636.898
421.948;   -4.257;   -8.293;  677.661
422.540;    0.977;   -7.893;  680.027
423.132;    0.370;   -7.082;  600.641
423.724;   -2.839;   -8.653;  561.267
424.316;   -0.980;  -10.213;  621.345
424.908;    2.050;   -9.762;  591.517
425.500;    2.758;   -5.572;  647.978
426.092;    3.187;   -8.422;  648.268
426.683;    2.451;   -9.283;  684.836
427.275;    5.822;   -7.852;  641.471
427.867;    6.999;   -5.272;  668.948
428.458;    7.085;   -7.682;  732.344
429.050;    5.914;  -10.612;  680.749
429.642;    7.975;   -9.882;  743.124
430.233;    8.036;   -6.962;  569.356
430.825;    9.807;   -6.842;  724.809
431.416;    6.852;   -9.672;  698.241
432.008;   10.589;   -6.552;  651.723
432.599;   10.667;   -6.891;  656.073
433.190;    8.045;  -10.912;  637.670
433.782;    7.185;  -11.172;  590.395
434.373;   14.537;   -6.061;  884.765
434.964;   13.223;   -8.251;  602.920
435.556;   10.766;   -9.722;  634.537
436.147;   14.476;   -9.082;  758.490
436.738;   15.437;   -8.041;  701.099
437.329;   18.656;   -7.341;  721.723
437.920;   12.065;   -8.162;  666.688
438.511;   12.533;  -11.802;  564.526
439.103;   19.181;  -10.191;  623.998
439.694;   19.856;   -7.601;  681.583
440.285;   21.227;   -8.541;  764.432
440.876;   19.153;   -9.751;  845.738
441.466;   19.260;   -9.401;  575.162
442.057;   23.802;   -7.760;  665.814
442.648;   22.637;   -9.971;  746.255
443.239;   21.269;  -11.001;  620.477
443.830;   26.504;   -7.990;  704.958
444.421;   27.822;   -7.910;  655.474
445.011;   24.280;   -8.131;  693.619
445.602;   24.362;   -7.111;  743.126
446.193;   26.271;  -10.920;  488.117
446.783;   30.023;   -6.500;  640.397
447.374;   26.305;   -8.671;  692.759
447.964;   26.414;  -10.781;  713.770
448.555;   34.730;   -9.650;  822.742
449.145;   31.650;   -8.660;  662.853
449.736;   32.275;   -8.990;  803.179
450.326;   31.694;   -9.500;  713.626
450.917;   36.378;   -8.680;  675.324
451.507;   35.562;   -7.520;  600.661
452.097;   36.464;   -8.590;  746.267
452.688;   38.062;  -11.340;  742.160
453.278;   37.562;  -10.100;  566.840
453.868;   41.803;   -6.019;  793.550
454.458;   39.319;   -9.440;  651.141
455.048;   40.187;  -10.560;  711.783
455.639;   41.216;  -11.799;  567.096
456.229;   44.711;   -6.899;  710.694
456.819;   46.291;   -7.389;  751.158
457.409;   47.335;  -11.119;  773.993
457.999;   50.742;   -9.289;  737.505
458.589;   49.692;   -6.139;  686.606
459.179;   49.140;   -8.729;  717.658
459.769;   47.595;   -9.789;  627.099
460.358;   53.268;  -10.259;  797.262
460.948;   51.860;   -7.299;  689.503
461.538;   54.147;  -10.289;  660.677
462.128;   52.042;  -11.269;  664.934
462.717;   58.447;   -9.368;  710.326
463.307;   61.393;   -7.908;  705.846
463.897;   57.040;   -9.599;  656.942
464.486;   56.645;   -9.769;  837.128
465.076;   61.067;   -8.048;  733.776
465.666;   64.404;   -9.358;  652.900
466.255;   62.058;   -7.919;  785.651
466.845;   61.927;  -11.689;  666.749
467.434;   64.346;   -7.818;  725.873
468.023;   64.978;   -7.678;  658.357
468.613;   62.749;  -10.939;  713.946
469.202;   67.713;  -10.118;  646.507
469.791;   71.009;   -9.108;  737.811
470.381;   73.095;   -6.058;  742.813
470.970;   73.045;  -10.428;  711.099
471.559;   72.965;  -10.268;  733.291
472.148;   75.933;   -8.448;  675.737
472.738;   78.478;   -6.917;  765.466
473.327;   77.519;  -11.978;  637.529
473.916;   77.138;  -11.888;  737.446
474.505;   82.232;   -9.437;  751.703
475.094;   84.469;   -6.747;  806.570
475.683;   84.081;   -9.367;  797.699
476.272;   84.983;  -12.637;  730.632
476.861;   87.886;  -10.027;  706.754
477.449;   93.884;   -8.716;  728.487
478.038;   88.048;   -9.577;  692.513
478.627;   89.863;   -9.718;  714.852
479.216;   95.467;   -8.947;  769.441
479.805;   99.202;   -6.256;  783.375
480.393;   98.217;   -7.937; 1008.945
480.982;   97.733;   -7.717;  874.501
481.571;  104.790;   -9.266;  858.333
482.159;  104.552;   -7.636;  705.386
482.748;  104.564;   -9.667;  821.385
483.336;  108.983;  -10.376;  858.209
483.925;  109.732;   -7.147;  774.373
484.513;  116.152;   -7.996;  758.962
485.102;  112.822;  -10.027;  810.965
485.690;  122.065;  -10.446; 1011.050
486.278;  123.578;   -8.446;  979.329
486.867;  124.604;   -6.356;  809.662
487.455;  125.007;   -9.136;  898.229
488.043;  127.242;  -10.646;  748.361
488.631;  135.470;   -7.456; 1005.079
489.220;  139.193;   -6.636;  908.626
489.808;  139.404;  -11.036;  741.415
490.396;  147.276;  -10.246;  914.645
490.984;  152.851;   -8.556;  830.161
491.572;  161.007;   -5.886;  940.315
492.160;  167.189;   -9.486;  919.081
492.748;  179.235;  -10.976;  884.341
493.336;  201.195;   -8.776; 1019.693
493.924;  226.259;   -5.465;  958.077
494.512;  252.104;   -9.986; 1066.638
495.100;  287.544;  -10.636; 1103.280
495.687;  340.513;  -10.885; 1206.373
496.275;  401.430;   -8.126; 1150.796
496.863;  469.583;  -10.586; 1281.171
497.451;  569.362;  -11.926; 1386.805
498.038;  694.730;  -10.885; 1556.729
498.626;  801.653;   -6.315; 1741.407
499.214;  946.776;   -7.326; 2016.609
499.801; 1133.774;  -11.906; 2220.633
500.389; 1381.051;  -10.466; 2312.494
500.976; 1678.728;   -5.236; 2744.849
501.564; 2106.192;   -8.936; 3148.565
502.151; 2470.668;  -13.176; 3515.999
502.738; 2902.688;  -10.646; 3971.274
503.326; 3293.657;   -9.525; 4403.796
503.913; 3676.761;  -10.856; 5161.749
504.500; 4027.967;  -11.586; 5986.420
505.088; 4437.256;  -10.336; 6381.201
505.675; 4953.148;   -6.355; 6925.547
506.262; 5664.740;   -9.046; 7619.060
506.849; 6365.959;  -10.416; 8733.969
507.436; 6822.418;  -10.305; 9790.121
508.023; 7385.930;   -5.496; 9985.472
508.610; 7657.982;   -7.856;10434.618
509.197; 8293.069;  -10.097;11198.435
509.784; 9648.245;  -10.886;12391.194
510.371;10691.261;   -9.315;13603.713
510.958;11421.114;   -9.936;14426.586
511.545;12194.371;   -9.326;15243.775
512.132;12996.400;  -10.075;15945.876
512.719;13483.215;   -7.796;16340.369
513.305;14351.896;  -10.606;18011.766
513.892;15025.686;  -11.486;19754.971
514.479;16348.188;   -9.126;20967.805
515.066;17937.475;   -6.026;22299.793
515.652;19307.123;   -8.466;22908.660
516.239;20484.664;  -10.886;23798.875
516.825;21384.736;  -11.496;25567.275
517.412;22258.652;   -5.796;28154.959
517.998;22829.396;  -10.506;28344.111
518.585;22999.824;  -10.076;27134.219
519.171;23538.221;   -8.315;27268.576
519.758;24835.514;   -8.596;28964.129
520.344;26671.387;   -8.466;30664.494
520.930;26738.504;  -11.006;32550.605
521.516;27826.652;  -10.495;35422.895
522.103;29972.326;   -5.526;38280.004
522.689;30456.455;   -8.746;37835.117
523.275;30148.037;  -11.376;37288.613
523.861;31641.244;  -11.156;37281.395
524.447;33068.922;   -8.135;37846.949
525.033;32877.141;   -7.896;38321.949
525.619;32996.977;  -12.476;38579.285
526.205;34510.832;   -9.516;40622.875
526.791;36773.344;   -6.926;42258.836
527.377;37144.156;   -8.346;42966.902
527.963;38451.602;   -8.717;42018.949
528.549;37021.730;  -11.016;42476.828
529.135;35758.484;   -8.536;41854.852
529.721;34957.461;   -9.666;41237.711
530.306;34208.773;  -10.066;41259.445
530.892;34034.844;  -11.356;41506.047
531.478;35455.145;   -6.596;43559.613
532.063;38346.914;   -8.836;47695.563
532.649;39002.723;  -10.047;50808.324
533.235;39689.762;   -9.746;51787.500
533.820;39976.105;   -6.566;52145.035
534.406;41387.367;  -10.817;51133.488
534.991;41159.043;   -9.416;49996.805
535.576;39730.766;   -9.036;48882.852
536.162;40363.727;   -6.156;46942.285
536.747;41149.164;  -11.607;45711.746
537.333;44395.715;  -11.787;48510.180
537.918;47533.992;  -12.437;50439.891
538.503;46517.117;   -7.196;50863.711
539.088;43082.242;  -10.556;50906.922
539.673;42798.258;   -8.767;52621.965
540.259;43005.383;  -10.026;52368.094
540.844;40794.695;   -7.416;50879.109
541.429;42058.746;   -9.467;52077.777
542.014;44566.320;   -9.527;52716.695
542.599;43882.586;   -9.946;52363.281
543.184;41708.367;   -7.927;53187.137
543.769;43120.363;   -9.297;54697.605
544.354;42739.113;  -10.127;53913.914
544.938;41588.602;   -9.267;49680.164
545.523;43557.211;   -6.506;47386.277
546.108;46384.930;   -9.787;49151.949
546.693;48145.484;  -11.587;51384.637
547.278;47750.539;  -10.986;51853.254
547.862;45067.543;   -8.206;51173.750
548.447;41005.816;  -10.067;51691.395
549.031;40467.961;   -9.637;52456.703
549.616;45124.391;   -9.926;52714.516
550.201;44611.125;   -6.347;52414.598
550.785;45726.984;   -7.917;52355.059
551.370;44882.414;  -10.867;54589.453
551.954;44328.328;   -9.047;58267.348
552.538;45307.023;   -7.827;59062.176
553.123;43826.941;  -10.287;58115.285
553.707;41397.324;  -12.178;56556.285
554.291;42722.262;   -8.717;56201.668
554.876;45196.297;   -7.457;55335.762
555.460;45463.449;  -10.387;54155.703
556.044;46288.652;   -9.618;53721.484
556.628;45067.156;  -11.567;53731.016
557.212;44188.949;   -8.097;54312.531
557.796;42790.219;  -11.077;53797.773
558.380;42847.398;  -11.108;56145.984
558.964;43144.535;   -9.057;57277.930
559.548;44474.082;   -6.977;56459.641
560.132;42899.180;  -11.457;54434.543
560.716;41381.727;  -11.378;54800.617
561.300;42310.543;   -9.577;57606.945
561.884;43532.230;   -7.127;58972.445
562.467;41925.324;   -7.118;57327.570
563.051;41454.961;  -13.358;54962.434
563.635;42569.832;  -10.178;52594.473
564.219;42609.285;   -7.837;50610.410
564.802;43379.871;  -11.398;49551.180
565.386;43349.336;  -12.788;48370.953
565.969;42715.199;   -9.077;48178.871
566.553;41824.383;   -6.207;49957.305
567.136;42553.492;   -8.568;50369.594
567.720;39258.086;  -11.868;49492.004
568.303;37162.180;   -8.268;50616.352
568.887;37122.504;   -8.698;50727.148
569.470;37496.719;   -6.808;51698.379
570.053;36206.070;  -13.188;52122.078
570.637;34766.910;  -12.037;52536.438
571.220;34764.836;   -8.577;51186.098
571.803;35507.563;   -8.498;51032.762
572.386;37387.461;  -10.498;49609.887
572.969;39748.016;   -9.388;48285.926
573.552;38017.473;   -8.338;47624.285
574.135;36609.438;   -8.518;45498.641
574.718;34351.246;  -13.628;41970.434
575.301;33358.680;  -10.893;41447.137
575.884;32366.113;   -8.158;40923.836
576.467;33224.461;  -10.328;45267.723
577.050;34434.676;  -13.058;48175.543
577.633;35086.570;   -9.458;47729.328
578.216;33799.941;   -8.928;47579.793
578.799;33275.277;   -9.358;47820.996
579.381;33135.504;  -11.388;48115.551
579.964;32084.396;  -11.718;47333.766
580.547;34118.617;   -8.588;46668.969
581.129;35269.477;   -8.859;44466.141
581.712;36018.410;  -10.729;44164.922
582.294;36567.121;  -11.118;46477.855
582.877;36378.684;   -5.218;48244.254
583.459;34002.387;   -8.679;47437.895
584.042;32051.508;  -10.709;46943.219
584.624;32444.723;  -11.669;46792.227
585.206;31933.803;   -8.218;46557.250
585.789;31680.518;  -10.569;45793.773
586.371;34215.637;  -11.859;43836.391
586.953;34571.449;  -10.719;42972.492
587.536;35458.480;   -7.198;42487.211
588.118;35198.156;   -8.720;42086.414
588.700;30409.053;  -10.439;43389.930
589.282;27666.311;   -9.198;43646.039
589.864;27266.143;   -9.199;43438.109
590.446;29502.549;  -11.319;43151.926
591.028;32253.094;  -11.159;42781.867
591.610;33011.258;  -11.779;42839.098
592.192;31056.822;   -7.668;42820.402
592.774;29745.373;  -11.949;40724.277
593.356;28493.939;  -12.129;39874.789
593.937;27340.184;  -10.669;39980.648
594.519;29363.637;   -6.509;42069.633
595.101;31604.502;  -10.849;42976.031
