
Integration time [ms]:   3.276
Averaging Nr. [scans]: 1000
Smoothing Nr. [pixels]: 0
Data measured with spectrometer [name]: 7414430SP
Wave   ;Sample   ;Dark     ;Reference
[nm]   ;[counts] ;[counts] ;[counts] 

288.544;  149.481;    7.793;  793.890
289.143;  154.169;    7.462;  681.602
289.742;  153.921;    8.602;  828.814
290.341;  138.775;    1.321;  789.841
290.940;  128.608;   -0.709;  730.702
291.538;  129.010;    0.881;  881.108
292.137;  129.344;    0.122;  792.581
292.736;  133.570;   -1.929;  975.101
293.335;  130.445;   -8.229;  735.086
293.934;  130.831;   -5.279;  781.677
294.532;  128.270;   -1.369; 1031.958
295.131;  115.045;   -7.641;  834.394
295.730;  115.305;   -8.420;  809.588
296.328;  115.310;   -5.611;  783.442
296.927;  115.575;   -5.781;  779.652
297.525;  116.396;   -6.361;  781.236
298.124;  106.396;  -11.382;  654.009
298.722;  110.574;   -7.641;  761.933
299.321;  107.846;   -6.811;  708.597
299.919;  106.155;   -6.991;  751.918
300.518;  103.172;  -10.362;  689.338
301.116;  105.479;   -9.581;  691.381
301.715;  104.322;   -4.891;  730.222
302.313;  103.212;   -8.801;  704.943
302.911;   98.917;   -8.522;  733.830
303.509;  104.592;   -6.171;  925.627
304.108;  102.249;   -7.311;  760.383
304.706;  101.168;   -8.321;  801.664
305.304;   95.766;  -10.222;  796.707
305.902;  100.816;   -6.021;  784.484
306.500;   96.292;   -4.971;  728.200
307.098;   95.100;   -7.061;  746.560
307.696;   93.261;   -8.801;  780.432
308.294;   93.885;   -6.411;  731.359
308.892;   95.151;   -2.901;  759.769
309.490;   91.816;   -5.041;  712.161
310.088;   90.174;   -5.002;  788.444
310.686;   94.231;   -2.041;  821.749
311.284;   90.374;   -2.351;  766.040
311.882;   88.159;   -4.422;  731.225
312.480;   85.124;   -4.192;  697.167
313.078;   86.049;   -1.172;  808.331
313.675;   86.490;   -2.601;  691.600
314.273;   81.980;   -1.312;  797.837
314.871;   81.591;   -3.942;  589.829
315.468;   79.469;   -2.802;  652.090
316.066;   81.200;   -0.701;  694.427
316.664;   76.156;   -4.362;  656.351
317.261;   78.688;   -2.872;  910.128
317.859;   74.979;   -2.022;  768.735
318.456;   75.075;   -0.531;  830.096
319.054;   71.903;   -3.912;  787.828
319.651;   70.233;   -4.752;  759.928
320.249;   68.857;   -2.602;  810.188
320.846;   66.881;   -0.821;  714.286
321.443;   64.246;   -4.642;  832.135
322.041;   61.201;   -5.002;  812.315
322.638;   59.239;   -3.982;  701.456
323.235;   60.358;   -3.411;  665.683
323.833;   57.939;   -7.361;  740.354
324.430;   52.693;   -8.611;  615.900
325.027;   54.161;   -4.061;  876.855
325.624;   52.980;   -4.031;  644.532
326.221;   50.339;   -7.481;  689.717
326.818;   51.042;   -5.281;  818.332
327.415;   53.934;   -7.460;  748.828
328.012;   51.865;   -5.510;  690.585
328.609;   51.346;   -7.880;  731.389
329.206;   49.502;   -8.331;  778.621
329.803;   50.101;   -5.121;  737.841
330.400;   52.071;   -4.510;  704.260
330.997;   54.050;   -6.441;  817.147
331.594;   52.087;   -8.831;  788.185
332.191;   57.907;   -7.621;  728.722
332.787;   60.972;   -4.591;  844.463
333.384;   59.222;   -7.412;  763.093
333.981;   58.759;   -8.293;  815.687
334.578;   60.027;   -7.052;  708.378
335.174;   63.612;   -3.102;  731.469
335.771;   63.243;   -5.943;  836.456
336.367;   60.077;   -7.393;  710.631
336.964;   64.606;   -4.063;  793.266
337.561;   61.322;   -3.813;  731.112
338.157;   56.794;   -4.654;  911.916
338.754;   55.517;   -7.934;  796.589
339.350;   53.490;   -4.414;  722.493
339.946;   54.922;   -4.664;  773.135
340.543;   46.413;   -6.375;  846.136
341.139;   41.791;   -9.815;  720.836
341.735;   40.183;   -4.526;  772.593
342.332;   37.866;   -4.895;  691.472
342.928;   38.335;   -4.295;  795.394
343.524;   32.887;   -5.476;  761.684
344.120;   28.878;   -5.856;  738.562
344.716;   31.630;   -2.155;  723.717
345.313;   30.678;   -6.275;  795.342
345.909;   25.362;   -8.815;  627.336
346.505;   26.770;   -5.305;  740.247
347.101;   26.406;   -2.674;  827.864
347.697;   27.120;   -4.344;  785.398
348.293;   22.722;   -9.975;  627.244
348.889;   23.045;   -5.774;  745.914
349.485;   22.023;   -5.004;  688.205
350.081;   22.685;   -4.704;  772.592
350.676;   17.952;   -6.635;  691.606
351.272;   22.613;   -4.504;  809.530
351.868;   22.030;   -3.914;  780.497
352.464;   19.298;   -9.044;  723.932
353.059;   15.560;   -8.314;  646.017
353.655;   18.982;   -7.024;  777.063
354.251;   19.831;   -5.343;  759.845
354.846;   14.210;   -8.604;  740.646
355.442;   12.153;   -6.945;  753.071
356.038;   14.014;   -7.564;  751.708
356.633;   13.858;   -5.814;  728.594
357.229;   11.504;   -7.364;  724.757
357.824;   10.130;   -8.024;  703.600
358.420;    9.654;   -9.384;  679.726
359.015;    9.836;   -5.104;  695.357
359.610;   10.782;   -6.854;  763.920
360.206;    5.053;  -10.185;  603.240
360.801;    8.064;   -7.054;  646.503
361.396;   10.035;   -5.034;  725.975
361.992;    5.159;   -8.284;  668.220
362.587;    3.238;   -8.625;  670.160
363.182;    4.911;   -7.674;  689.631
363.777;    4.923;   -5.164;  738.242
364.372;    5.538;   -8.604;  737.314
364.967;    1.414;   -9.055;  680.744
365.563;    5.953;   -6.114;  815.567
366.158;    3.022;   -5.814;  685.161
366.753;    2.855;   -7.854;  649.263
367.348;    2.266;   -7.804;  746.056
367.942;    1.721;   -7.954;  697.298
368.537;    0.455;   -4.984;  754.245
369.132;    0.099;   -8.564;  703.428
369.727;   -3.395;   -8.855;  638.079
370.322;   -1.448;   -6.245;  580.186
370.917;   -2.049;   -6.425;  710.646
371.511;    0.320;   -6.294;  861.834
372.106;   -2.614;   -7.685;  776.964
372.701;   -5.268;   -7.335;  585.988
373.296;   -0.484;   -4.564;  863.135
373.890;   -5.491;  -10.235;  647.840
374.485;   -6.964;   -7.885;  691.199
375.079;   -2.902;   -7.324;  738.685
375.674;   -2.144;   -3.494;  812.970
376.268;   -7.211;   -8.525;  691.759
376.863;  -12.162;  -10.086;  580.327
377.457;   -5.722;   -7.025;  662.490
378.052;   -8.661;   -3.585;  764.884
378.646;   -8.565;   -7.595;  741.167
379.240;   -9.434;   -8.335;  721.176
379.835;   -7.830;   -5.785;  636.978
380.429;  -10.503;   -4.335;  562.557
381.023;  -10.586;   -6.805;  779.205
381.617;  -12.522;   -9.195;  680.106
382.212;   -9.098;   -6.905;  685.303
382.806;   -8.521;   -3.745;  760.690
383.400;  -12.023;   -7.745;  672.281
383.994;  -13.364;   -9.765;  664.870
384.588;   -8.758;   -6.564;  697.701
385.182;   -8.800;   -5.344;  726.624
385.776;  -10.435;   -8.514;  706.875
386.370;  -13.845;   -9.555;  681.968
386.964;  -12.131;   -8.715;  684.155
387.558;  -11.518;   -6.174;  598.360
388.152;  -14.127;   -8.725;  681.959
388.745;  -11.838;   -7.965;  814.707
389.339;   -9.839;   -5.924;  747.642
389.933;   -9.283;   -5.524;  695.370
390.527;  -10.572;   -7.114;  859.029
391.120;  -17.032;  -10.725;  595.318
391.714;  -12.918;   -8.035;  711.633
392.308;  -10.865;   -3.574;  780.253
392.901;  -15.054;   -7.245;  642.460
393.495;  -15.969;   -9.285;  595.414
394.089;  -12.923;   -5.895;  760.452
394.682;  -14.626;   -4.295;  697.188
395.275;  -15.345;   -9.875;  719.927
395.869;  -16.536;   -8.485;  667.314
396.462;  -14.462;   -7.455;  616.609
397.056;  -10.921;   -5.424;  776.621
397.649;  -16.189;   -6.605;  731.575
398.242;  -12.954;   -8.224;  712.645
398.836;  -11.933;   -7.474;  766.408
399.429;  -13.365;   -7.094;  631.041
400.022;  -16.514;   -9.475;  665.902
400.615;  -15.161;   -7.145;  805.609
401.208;  -11.892;   -7.174;  691.451
401.802;  -14.687;   -5.515;  699.329
402.395;  -16.115;   -9.875;  683.502
402.988;  -17.004;   -8.845;  696.627
403.581;  -12.996;   -8.874;  646.878
404.174;  -11.578;   -5.324;  686.568
404.767;  -14.754;   -9.575;  638.583
405.360;  -16.987;  -10.965;  621.445
405.953;  -11.126;   -8.764;  759.034
406.545;  -11.236;   -7.514;  725.342
407.138;  -15.738;  -10.025;  618.350
407.731;  -14.014;  -10.034;  613.303
408.324;   -9.642;   -9.374;  660.554
408.917;  -11.081;   -6.534;  681.864
409.509;  -13.549;   -8.004;  740.396
410.102;  -14.733;   -9.875;  643.948
410.695;   -8.858;   -8.604;  665.758
411.287;  -10.274;   -6.794;  599.821
411.880;  -10.851;   -9.334;  585.421
412.472;  -14.341;  -10.254;  613.092
413.065;  -10.930;   -6.714;  629.408
413.657;   -9.068;   -7.234;  576.678
414.250;   -9.231;  -10.544;  646.681
414.842;  -10.530;   -9.744;  676.353
415.434;   -7.699;   -6.994;  570.463
416.027;   -5.397;   -5.893;  652.196
416.619;   -6.778;   -7.264;  713.400
417.211;   -6.402;  -10.374;  599.352
417.804;   -3.416;   -7.993;  628.499
418.396;   -7.419;   -7.234;  607.643
418.988;   -5.709;   -9.443;  659.238
419.580;   -8.489;  -10.724;  568.276
420.172;   -5.707;  -10.323;  536.196
420.764;   -1.809;   -8.793;  672.482
421.356;   -3.211;  -11.143;  636.898
421.948;   -3.640;   -8.293;  677.661
422.540;    1.066;   -7.893;  680.027
423.132;   -0.402;   -7.082;  600.641
423.724;   -4.029;   -8.653;  561.267
424.316;   -1.452;  -10.213;  621.345
424.908;    1.704;   -9.762;  591.517
425.500;    2.906;   -5.572;  647.978
426.092;    3.207;   -8.422;  648.268
426.683;    2.372;   -9.283;  684.836
427.275;    5.820;   -7.852;  641.471
427.867;    6.468;   -5.272;  668.948
428.458;    6.634;   -7.682;  732.344
429.050;    5.348;  -10.612;  680.749
429.642;    8.126;   -9.882;  743.124
430.233;    8.146;   -6.962;  569.356
430.825;    9.788;   -6.842;  724.809
431.416;    7.704;   -9.672;  698.241
432.008;   10.360;   -6.552;  651.723
432.599;   11.100;   -6.891;  656.073
433.190;    7.888;  -10.912;  637.670
433.782;    7.956;  -11.172;  590.395
434.373;   14.829;   -6.061;  884.765
434.964;   13.832;   -8.251;  602.920
435.556;   10.863;   -9.722;  634.537
436.147;   13.666;   -9.082;  758.490
436.738;   14.069;   -8.041;  701.099
437.329;   18.936;   -7.341;  721.723
437.920;   11.775;   -8.162;  666.688
438.511;   12.282;  -11.802;  564.526
439.103;   19.260;  -10.191;  623.998
439.694;   20.769;   -7.601;  681.583
440.285;   21.284;   -8.541;  764.432
440.876;   19.150;   -9.751;  845.738
441.466;   19.586;   -9.401;  575.162
442.057;   23.489;   -7.760;  665.814
442.648;   23.288;   -9.971;  746.255
443.239;   21.166;  -11.001;  620.477
443.830;   26.857;   -7.990;  704.958
444.421;   27.468;   -7.910;  655.474
445.011;   24.053;   -8.131;  693.619
445.602;   23.938;   -7.111;  743.126
446.193;   25.788;  -10.920;  488.117
446.783;   30.226;   -6.500;  640.397
447.374;   25.027;   -8.671;  692.759
447.964;   26.548;  -10.781;  713.770
448.555;   34.826;   -9.650;  822.742
449.145;   30.852;   -8.660;  662.853
449.736;   32.115;   -8.990;  803.179
450.326;   32.406;   -9.500;  713.626
450.917;   36.841;   -8.680;  675.324
451.507;   36.093;   -7.520;  600.661
452.097;   36.264;   -8.590;  746.267
452.688;   37.618;  -11.340;  742.160
453.278;   38.047;  -10.100;  566.840
453.868;   42.263;   -6.019;  793.550
454.458;   39.003;   -9.440;  651.141
455.048;   39.405;  -10.560;  711.783
455.639;   42.206;  -11.799;  567.096
456.229;   45.156;   -6.899;  710.694
456.819;   46.012;   -7.389;  751.158
457.409;   48.066;  -11.119;  773.993
457.999;   50.511;   -9.289;  737.505
458.589;   49.949;   -6.139;  686.606
459.179;   49.355;   -8.729;  717.658
459.769;   47.953;   -9.789;  627.099
460.358;   53.490;  -10.259;  797.262
460.948;   53.169;   -7.299;  689.503
461.538;   54.278;  -10.289;  660.677
462.128;   52.338;  -11.269;  664.934
462.717;   58.916;   -9.368;  710.326
463.307;   61.713;   -7.908;  705.846
463.897;   57.644;   -9.599;  656.942
464.486;   57.029;   -9.769;  837.128
465.076;   61.633;   -8.048;  733.776
465.666;   64.517;   -9.358;  652.900
466.255;   62.556;   -7.919;  785.651
466.845;   61.446;  -11.689;  666.749
467.434;   65.224;   -7.818;  725.873
468.023;   65.972;   -7.678;  658.357
468.613;   63.311;  -10.939;  713.946
469.202;   67.591;  -10.118;  646.507
469.791;   71.865;   -9.108;  737.811
470.381;   73.294;   -6.058;  742.813
470.970;   72.834;  -10.428;  711.099
471.559;   72.859;  -10.268;  733.291
472.148;   76.437;   -8.448;  675.737
472.738;   79.043;   -6.917;  765.466
473.327;   77.500;  -11.978;  637.529
473.916;   77.686;  -11.888;  737.446
474.505;   83.281;   -9.437;  751.703
475.094;   85.493;   -6.747;  806.570
475.683;   84.302;   -9.367;  797.699
476.272;   85.074;  -12.637;  730.632
476.861;   88.262;  -10.027;  706.754
477.449;   94.824;   -8.716;  728.487
478.038;   88.254;   -9.577;  692.513
478.627;   89.844;   -9.718;  714.852
479.216;   97.308;   -8.947;  769.441
479.805;   98.928;   -6.256;  783.375
480.393;   98.830;   -7.937; 1008.945
480.982;   98.561;   -7.717;  874.501
481.571;  104.721;   -9.266;  858.333
482.159;  104.678;   -7.636;  705.386
482.748;  104.488;   -9.667;  821.385
483.336;  109.019;  -10.376;  858.209
483.925;  110.576;   -7.147;  774.373
484.513;  116.810;   -7.996;  758.962
485.102;  112.556;  -10.027;  810.965
485.690;  122.374;  -10.446; 1011.050
486.278;  123.802;   -8.446;  979.329
486.867;  123.791;   -6.356;  809.662
487.455;  126.150;   -9.136;  898.229
488.043;  127.049;  -10.646;  748.361
488.631;  136.376;   -7.456; 1005.079
489.220;  139.766;   -6.636;  908.626
489.808;  139.463;  -11.036;  741.415
490.396;  146.699;  -10.246;  914.645
490.984;  154.317;   -8.556;  830.161
491.572;  162.224;   -5.886;  940.315
492.160;  167.373;   -9.486;  919.081
492.748;  179.391;  -10.976;  884.341
493.336;  202.272;   -8.776; 1019.693
493.924;  227.285;   -5.465;  958.077
494.512;  252.209;   -9.986; 1066.638
495.100;  288.625;  -10.636; 1103.280
495.687;  342.950;  -10.885; 1206.373
496.275;  401.793;   -8.126; 1150.796
496.863;  469.328;  -10.586; 1281.171
497.451;  567.775;  -11.926; 1386.805
498.038;  692.923;  -10.885; 1556.729
498.626;  792.547;   -6.315; 1741.407
499.214;  931.114;   -7.326; 2016.609
499.801; 1118.813;  -11.906; 2220.633
500.389; 1354.250;  -10.466; 2312.494
500.976; 1651.371;   -5.236; 2744.849
501.564; 2068.538;   -8.936; 3148.565
502.151; 2429.073;  -13.176; 3515.999
502.738; 2859.330;  -10.646; 3971.274
503.326; 3234.180;   -9.525; 4403.796
503.913; 3593.333;  -10.856; 5161.749
504.500; 3941.654;  -11.586; 5986.420
505.088; 4341.737;  -10.336; 6381.201
505.675; 4851.797;   -6.355; 6925.547
506.262; 5543.246;   -9.046; 7619.060
506.849; 6230.261;  -10.416; 8733.969
507.436; 6668.757;  -10.305; 9790.121
508.023; 7208.366;   -5.496; 9985.472
508.610; 7471.693;   -7.856;10434.618
509.197; 8110.736;  -10.097;11198.435
509.784; 9443.403;  -10.886;12391.194
510.371;10443.905;   -9.315;13603.713
510.958;11162.210;   -9.936;14426.586
511.545;11918.274;   -9.326;15243.775
512.132;12770.058;  -10.075;15945.876
512.719;13318.460;   -7.796;16340.369
513.305;14199.476;  -10.606;18011.766
513.892;14908.981;  -11.486;19754.971
514.479;16221.200;   -9.126;20967.805
515.066;17712.975;   -6.026;22299.793
515.652;18940.867;   -8.466;22908.660
516.239;20234.229;  -10.886;23798.875
516.825;21350.248;  -11.496;25567.275
517.412;22387.865;   -5.796;28154.959
517.998;22911.611;  -10.506;28344.111
518.585;22965.506;  -10.076;27134.219
519.171;23539.402;   -8.315;27268.576
519.758;24890.670;   -8.596;28964.129
520.344;26690.883;   -8.466;30664.494
520.930;26853.637;  -11.006;32550.605
521.516;28290.277;  -10.495;35422.895
522.103;30584.723;   -5.526;38280.004
522.689;31136.943;   -8.746;37835.117
523.275;30629.719;  -11.376;37288.613
523.861;31841.713;  -11.156;37281.395
524.447;33122.590;   -8.135;37846.949
525.033;32905.914;   -7.896;38321.949
525.619;33137.043;  -12.476;38579.285
526.205;34819.203;   -9.516;40622.875
526.791;37055.258;   -6.926;42258.836
527.377;37356.852;   -8.346;42966.902
527.963;38923.707;   -8.717;42018.949
528.549;37341.004;  -11.016;42476.828
529.135;36121.293;   -8.536;41854.852
529.721;35624.324;   -9.666;41237.711
530.306;34931.582;  -10.066;41259.445
530.892;34738.625;  -11.356;41506.047
531.478;36137.516;   -6.596;43559.613
532.063;39042.742;   -8.836;47695.563
532.649;39435.066;  -10.047;50808.324
533.235;40422.836;   -9.746;51787.500
533.820;41170.223;   -6.566;52145.035
534.406;42610.699;  -10.817;51133.488
534.991;42430.035;   -9.416;49996.805
535.576;41076.770;   -9.036;48882.852
536.162;41523.910;   -6.156;46942.285
536.747;42336.930;  -11.607;45711.746
537.333;46081.516;  -11.787;48510.180
537.918;48995.434;  -12.437;50439.891
538.503;47563.316;   -7.196;50863.711
539.088;44286.496;  -10.556;50906.922
539.673;44086.531;   -8.767;52621.965
540.259;44148.109;  -10.026;52368.094
540.844;41663.465;   -7.416;50879.109
541.429;42757.121;   -9.467;52077.777
542.014;45524.230;   -9.527;52716.695
542.599;45046.539;   -9.946;52363.281
543.184;42949.133;   -7.927;53187.137
543.769;44344.121;   -9.297;54697.605
544.354;43737.711;  -10.127;53913.914
544.938;42493.246;   -9.267;49680.164
545.523;44367.012;   -6.506;47386.277
546.108;46897.746;   -9.787;49151.949
546.693;48906.828;  -11.587;51384.637
547.278;48545.719;  -10.986;51853.254
547.862;45730.605;   -8.206;51173.750
548.447;41453.164;  -10.067;51691.395
549.031;40990.883;   -9.637;52456.703
549.616;45819.766;   -9.926;52714.516
550.201;45102.922;   -6.347;52414.598
550.785;46219.059;   -7.917;52355.059
551.370;45418.961;  -10.867;54589.453
551.954;44993.395;   -9.047;58267.348
552.538;45766.875;   -7.827;59062.176
553.123;44197.699;  -10.287;58115.285
553.707;42139.789;  -12.178;56556.285
554.291;43342.344;   -8.717;56201.668
554.876;45441.625;   -7.457;55335.762
555.460;45724.691;  -10.387;54155.703
556.044;46875.941;   -9.618;53721.484
556.628;45571.457;  -11.567;53731.016
557.212;44342.320;   -8.097;54312.531
557.796;42901.207;  -11.077;53797.773
558.380;42771.590;  -11.108;56145.984
558.964;43024.371;   -9.057;57277.930
559.548;44145.359;   -6.977;56459.641
560.132;42612.176;  -11.457;54434.543
560.716;41397.902;  -11.378;54800.617
561.300;42481.543;   -9.577;57606.945
561.884;43555.898;   -7.127;58972.445
562.467;42108.805;   -7.118;57327.570
563.051;41502.836;  -13.358;54962.434
563.635;42441.043;  -10.178;52594.473
564.219;42526.617;   -7.837;50610.410
564.802;43335.070;  -11.398;49551.180
565.386;43336.000;  -12.788;48370.953
565.969;42719.320;   -9.077;48178.871
566.553;42126.914;   -6.207;49957.305
567.136;42519.699;   -8.568;50369.594
567.720;38941.926;  -11.868;49492.004
568.303;36946.836;   -8.268;50616.352
568.887;37068.766;   -8.698;50727.148
569.470;37235.910;   -6.808;51698.379
570.053;35877.117;  -13.188;52122.078
570.637;34491.273;  -12.037;52536.438
571.220;34379.980;   -8.577;51186.098
571.803;34921.539;   -8.498;51032.762
572.386;37082.238;  -10.498;49609.887
572.969;39421.031;   -9.388;48285.926
573.552;37451.074;   -8.338;47624.285
574.135;36147.828;   -8.518;45498.641
574.718;33806.113;  -13.628;41970.434
575.301;32792.988;  -10.893;41447.137
575.884;31779.865;   -8.158;40923.836
576.467;32907.539;  -10.328;45267.723
577.050;34670.238;  -13.058;48175.543
577.633;35793.125;   -9.458;47729.328
578.216;34390.070;   -8.928;47579.793
578.799;32998.496;   -9.358;47820.996
579.381;31720.934;  -11.388;48115.551
579.964;30525.846;  -11.718;47333.766
580.547;32793.734;   -8.588;46668.969
581.129;34340.055;   -8.859;44466.141
581.712;35210.594;  -10.729;44164.922
582.294;35780.301;  -11.118;46477.855
582.877;35598.246;   -5.218;48244.254
583.459;33035.289;   -8.679;47437.895
584.042;31188.441;  -10.709;46943.219
584.624;31842.477;  -11.669;46792.227
585.206;31178.879;   -8.218;46557.250
585.789;30936.340;  -10.569;45793.773
586.371;33270.688;  -11.859;43836.391
586.953;33179.023;  -10.719;42972.492
587.536;33146.883;   -7.198;42487.211
588.118;31259.891;   -8.720;42086.414
588.700;26541.023;  -10.439;43389.930
589.282;26212.906;   -9.198;43646.039
589.864;29686.213;   -9.199;43438.109
590.446;33067.902;  -11.319;43151.926
591.028;34104.934;  -11.159;42781.867
591.610;33535.984;  -11.779;42839.098
592.192;31150.244;   -7.668;42820.402
592.774;29650.354;  -11.949;40724.277
593.356;28335.957;  -12.129;39874.789
593.937;27258.635;  -10.669;39980.648
594.519;29324.086;   -6.509;42069.633
595.101;31520.014;  -10.849;42976.031
