
Integration time [ms]:   3.276
Averaging Nr. [scans]: 1000
Smoothing Nr. [pixels]: 0
Data measured with spectrometer [name]: 7414430SP
Wave   ;Sample   ;Dark     ;Reference
[nm]   ;[counts] ;[counts] ;[counts] 

288.544;  159.852;    7.793;  793.890
289.143;  163.559;    7.462;  681.602
289.742;  164.162;    8.602;  828.814
290.341;  149.702;    1.321;  789.841
290.940;  139.664;   -0.709;  730.702
291.538;  143.265;    0.881;  881.108
292.137;  142.067;    0.122;  792.581
292.736;  144.041;   -1.929;  975.101
293.335;  139.862;   -8.229;  735.086
293.934;  141.711;   -5.279;  781.677
294.532;  142.135;   -1.369; 1031.958
295.131;  129.283;   -7.641;  834.394
295.730;  129.831;   -8.420;  809.588
296.328;  126.106;   -5.611;  783.442
296.927;  125.374;   -5.781;  779.652
297.525;  125.906;   -6.361;  781.236
298.124;  118.955;  -11.382;  654.009
298.722;  122.502;   -7.641;  761.933
299.321;  118.969;   -6.811;  708.597
299.919;  115.142;   -6.991;  751.918
300.518;  112.104;  -10.362;  689.338
301.116;  115.516;   -9.581;  691.381
301.715;  116.774;   -4.891;  730.222
302.313;  113.869;   -8.801;  704.943
302.911;  109.383;   -8.522;  733.830
303.509;  113.883;   -6.171;  925.627
304.108;  112.488;   -7.311;  760.383
304.706;  111.578;   -8.321;  801.664
305.304;  105.799;  -10.222;  796.707
305.902;  109.637;   -6.021;  784.484
306.500;  105.754;   -4.971;  728.200
307.098;  104.905;   -7.061;  746.560
307.696;  103.459;   -8.801;  780.432
308.294;  104.221;   -6.411;  731.359
308.892;  105.247;   -2.901;  759.769
309.490;  101.517;   -5.041;  712.161
310.088;  100.176;   -5.002;  788.444
310.686;  103.473;   -2.041;  821.749
311.284;   99.916;   -2.351;  766.040
311.882;   97.475;   -4.422;  731.225
312.480;   93.276;   -4.192;  697.167
313.078;   95.099;   -1.172;  808.331
313.675;   95.250;   -2.601;  691.600
314.273;   91.148;   -1.312;  797.837
314.871;   90.299;   -3.942;  589.829
315.468;   87.821;   -2.802;  652.090
316.066;   91.224;   -0.701;  694.427
316.664;   84.134;   -4.362;  656.351
317.261;   88.322;   -2.872;  910.128
317.859;   83.218;   -2.022;  768.735
318.456;   84.078;   -0.531;  830.096
319.054;   79.993;   -3.912;  787.828
319.651;   78.371;   -4.752;  759.928
320.249;   77.723;   -2.602;  810.188
320.846;   75.112;   -0.821;  714.286
321.443;   72.080;   -4.642;  832.135
322.041;   69.220;   -5.002;  812.315
322.638;   67.225;   -3.982;  701.456
323.235;   67.060;   -3.411;  665.683
323.833;   65.227;   -7.361;  740.354
324.430;   59.756;   -8.611;  615.900
325.027;   61.117;   -4.061;  876.855
325.624;   60.928;   -4.031;  644.532
326.221;   57.318;   -7.481;  689.717
326.818;   57.305;   -5.281;  818.332
327.415;   60.018;   -7.460;  748.828
328.012;   59.430;   -5.510;  690.585
328.609;   57.510;   -7.880;  731.389
329.206;   56.274;   -8.331;  778.621
329.803;   56.887;   -5.121;  737.841
330.400;   58.473;   -4.510;  704.260
330.997;   60.101;   -6.441;  817.147
331.594;   57.286;   -8.831;  788.185
332.191;   63.419;   -7.621;  728.722
332.787;   66.612;   -4.591;  844.463
333.384;   66.048;   -7.412;  763.093
333.981;   64.147;   -8.293;  815.687
334.578;   67.016;   -7.052;  708.378
335.174;   70.240;   -3.102;  731.469
335.771;   69.756;   -5.943;  836.456
336.367;   66.735;   -7.393;  710.631
336.964;   71.554;   -4.063;  793.266
337.561;   70.280;   -3.813;  731.112
338.157;   65.060;   -4.654;  911.916
338.754;   63.268;   -7.934;  796.589
339.350;   62.795;   -4.414;  722.493
339.946;   63.191;   -4.664;  773.135
340.543;   54.543;   -6.375;  846.136
341.139;   48.518;   -9.815;  720.836
341.735;   47.500;   -4.526;  772.593
342.332;   46.748;   -4.895;  691.472
342.928;   46.125;   -4.295;  795.394
343.524;   38.168;   -5.476;  761.684
344.120;   36.355;   -5.856;  738.562
344.716;   38.613;   -2.155;  723.717
345.313;   35.059;   -6.275;  795.342
345.909;   30.006;   -8.815;  627.336
346.505;   32.556;   -5.305;  740.247
347.101;   32.010;   -2.674;  827.864
347.697;   32.480;   -4.344;  785.398
348.293;   27.092;   -9.975;  627.244
348.889;   28.531;   -5.774;  745.914
349.485;   27.319;   -5.004;  688.205
350.081;   27.693;   -4.704;  772.592
350.676;   22.873;   -6.635;  691.606
351.272;   27.985;   -4.504;  809.530
351.868;   27.215;   -3.914;  780.497
352.464;   23.957;   -9.044;  723.932
353.059;   20.301;   -8.314;  646.017
353.655;   24.586;   -7.024;  777.063
354.251;   24.551;   -5.343;  759.845
354.846;   18.285;   -8.604;  740.646
355.442;   17.048;   -6.945;  753.071
356.038;   19.161;   -7.564;  751.708
356.633;   18.671;   -5.814;  728.594
357.229;   15.974;   -7.364;  724.757
357.824;   15.127;   -8.024;  703.600
358.420;   14.640;   -9.384;  679.726
359.015;   15.460;   -5.104;  695.357
359.610;   15.405;   -6.854;  763.920
360.206;    9.646;  -10.185;  603.240
360.801;   12.778;   -7.054;  646.503
361.396;   14.429;   -5.034;  725.975
361.992;    8.967;   -8.284;  668.220
362.587;    6.825;   -8.625;  670.160
363.182;    9.901;   -7.674;  689.631
363.777;    9.246;   -5.164;  738.242
364.372;   10.053;   -8.604;  737.314
364.967;    5.238;   -9.055;  680.744
365.563;   10.253;   -6.114;  815.567
366.158;    6.929;   -5.814;  685.161
366.753;    7.108;   -7.854;  649.263
367.348;    5.520;   -7.804;  746.056
367.942;    5.974;   -7.954;  697.298
368.537;    4.481;   -4.984;  754.245
369.132;    4.394;   -8.564;  703.428
369.727;    1.018;   -8.855;  638.079
370.322;    2.107;   -6.245;  580.186
370.917;    1.474;   -6.425;  710.646
371.511;    4.178;   -6.294;  861.834
372.106;    0.602;   -7.685;  776.964
372.701;   -2.805;   -7.335;  585.988
373.296;    2.756;   -4.564;  863.135
373.890;   -2.094;  -10.235;  647.840
374.485;   -3.850;   -7.885;  691.199
375.079;    0.047;   -7.324;  738.685
375.674;    1.827;   -3.494;  812.970
376.268;   -3.317;   -8.525;  691.759
376.863;   -8.923;  -10.086;  580.327
377.457;   -1.586;   -7.025;  662.490
378.052;   -4.510;   -3.585;  764.884
378.646;   -5.510;   -7.595;  741.167
379.240;   -5.548;   -8.335;  721.176
379.835;   -4.231;   -5.785;  636.978
380.429;   -6.936;   -4.335;  562.557
381.023;   -7.503;   -6.805;  779.205
381.617;   -9.603;   -9.195;  680.106
382.212;   -5.923;   -6.905;  685.303
382.806;   -5.438;   -3.745;  760.690
383.400;   -9.452;   -7.745;  672.281
383.994;  -10.347;   -9.765;  664.870
384.588;   -6.555;   -6.564;  697.701
385.182;   -5.566;   -5.344;  726.624
385.776;   -7.887;   -8.514;  706.875
386.370;  -10.257;   -9.555;  681.968
386.964;   -8.960;   -8.715;  684.155
387.558;   -7.405;   -6.174;  598.360
388.152;  -10.315;   -8.725;  681.959
388.745;   -9.789;   -7.965;  814.707
389.339;   -7.084;   -5.924;  747.642
389.933;   -6.517;   -5.524;  695.370
390.527;   -7.910;   -7.114;  859.029
391.120;  -13.983;  -10.725;  595.318
391.714;  -10.626;   -8.035;  711.633
392.308;   -8.129;   -3.574;  780.253
392.901;  -11.778;   -7.245;  642.460
393.495;  -13.141;   -9.285;  595.414
394.089;  -10.914;   -5.895;  760.452
394.682;  -11.734;   -4.295;  697.188
395.275;  -12.560;   -9.875;  719.927
395.869;  -14.033;   -8.485;  667.314
396.462;  -12.142;   -7.455;  616.609
397.056;   -8.526;   -5.424;  776.621
397.649;  -12.775;   -6.605;  731.575
398.242;  -11.055;   -8.224;  712.645
398.836;   -9.580;   -7.474;  766.408
399.429;  -10.526;   -7.094;  631.041
400.022;  -14.349;   -9.475;  665.902
400.615;  -11.667;   -7.145;  805.609
401.208;   -9.327;   -7.174;  691.451
401.802;  -12.086;   -5.515;  699.329
402.395;  -13.477;   -9.875;  683.502
402.988;  -13.890;   -8.845;  696.627
403.581;  -10.566;   -8.874;  646.878
404.174;   -9.176;   -5.324;  686.568
404.767;  -11.541;   -9.575;  638.583
405.360;  -13.762;  -10.965;  621.445
405.953;   -8.342;   -8.764;  759.034
406.545;   -8.123;   -7.514;  725.342
407.138;  -12.566;  -10.025;  618.350
407.731;  -11.664;  -10.034;  613.303
408.324;   -7.134;   -9.374;  660.554
408.917;   -7.963;   -6.534;  681.864
409.509;   -9.911;   -8.004;  740.396
410.102;  -12.389;   -9.875;  643.948
410.695;   -5.737;   -8.604;  665.758
411.287;   -7.232;   -6.794;  599.821
411.880;   -8.085;   -9.334;  585.421
412.472;  -11.211;  -10.254;  613.092
413.065;   -8.050;   -6.714;  629.408
413.657;   -6.604;   -7.234;  576.678
414.250;   -6.590;  -10.544;  646.681
414.842;   -8.995;   -9.744;  676.353
415.434;   -5.828;   -6.994;  570.463
416.027;   -1.957;   -5.893;  652.196
416.619;   -3.944;   -7.264;  713.400
417.211;   -4.297;  -10.374;  599.352
417.804;   -0.907;   -7.993;  628.499
418.396;   -5.128;   -7.234;  607.643
418.988;   -2.917;   -9.443;  659.238
419.580;   -6.117;  -10.724;  568.276
420.172;   -3.890;  -10.323;  536.196
420.764;    0.477;   -8.793;  672.482
421.356;   -1.262;  -11.143;  636.898
421.948;   -1.595;   -8.293;  677.661
422.540;    3.760;   -7.893;  680.027
423.132;    2.605;   -7.082;  600.641
423.724;   -0.538;   -8.653;  561.267
424.316;    1.161;  -10.213;  621.345
424.908;    4.691;   -9.762;  591.517
425.500;    5.874;   -5.572;  647.978
426.092;    5.212;   -8.422;  648.268
426.683;    4.093;   -9.283;  684.836
427.275;    7.062;   -7.852;  641.471
427.867;    9.325;   -5.272;  668.948
428.458;    9.457;   -7.682;  732.344
429.050;    8.167;  -10.612;  680.749
429.642;   10.632;   -9.882;  743.124
430.233;   11.354;   -6.962;  569.356
430.825;   11.854;   -6.842;  724.809
431.416;    9.617;   -9.672;  698.241
432.008;   13.723;   -6.552;  651.723
432.599;   13.966;   -6.891;  656.073
433.190;   10.623;  -10.912;  637.670
433.782;    9.642;  -11.172;  590.395
434.373;   17.741;   -6.061;  884.765
434.964;   15.875;   -8.251;  602.920
435.556;   13.012;   -9.722;  634.537
436.147;   16.208;   -9.082;  758.490
436.738;   16.645;   -8.041;  701.099
437.329;   21.796;   -7.341;  721.723
437.920;   14.758;   -8.162;  666.688
438.511;   14.841;  -11.802;  564.526
439.103;   22.193;  -10.191;  623.998
439.694;   23.284;   -7.601;  681.583
440.285;   23.662;   -8.541;  764.432
440.876;   21.257;   -9.751;  845.738
441.466;   21.779;   -9.401;  575.162
442.057;   26.936;   -7.760;  665.814
442.648;   25.278;   -9.971;  746.255
443.239;   24.096;  -11.001;  620.477
443.830;   29.329;   -7.990;  704.958
444.421;   30.615;   -7.910;  655.474
445.011;   26.810;   -8.131;  693.619
445.602;   26.767;   -7.111;  743.126
446.193;   28.901;  -10.920;  488.117
446.783;   33.019;   -6.500;  640.397
447.374;   28.309;   -8.671;  692.759
447.964;   28.859;  -10.781;  713.770
448.555;   37.288;   -9.650;  822.742
449.145;   33.991;   -8.660;  662.853
449.736;   35.074;   -8.990;  803.179
450.326;   35.066;   -9.500;  713.626
450.917;   39.919;   -8.680;  675.324
451.507;   38.833;   -7.520;  600.661
452.097;   39.309;   -8.590;  746.267
452.688;   40.758;  -11.340;  742.160
453.278;   40.846;  -10.100;  566.840
453.868;   45.801;   -6.019;  793.550
454.458;   42.255;   -9.440;  651.141
455.048;   42.400;  -10.560;  711.783
455.639;   44.693;  -11.799;  567.096
456.229;   48.401;   -6.899;  710.694
456.819;   50.053;   -7.389;  751.158
457.409;   50.270;  -11.119;  773.993
457.999;   53.821;   -9.289;  737.505
458.589;   52.698;   -6.139;  686.606
459.179;   52.511;   -8.729;  717.658
459.769;   50.450;   -9.789;  627.099
460.358;   56.091;  -10.259;  797.262
460.948;   55.003;   -7.299;  689.503
461.538;   56.219;  -10.289;  660.677
462.128;   54.456;  -11.269;  664.934
462.717;   62.279;   -9.368;  710.326
463.307;   65.704;   -7.908;  705.846
463.897;   60.819;   -9.599;  656.942
464.486;   60.614;   -9.769;  837.128
465.076;   65.271;   -8.048;  733.776
465.666;   68.247;   -9.358;  652.900
466.255;   65.026;   -7.919;  785.651
466.845;   63.638;  -11.689;  666.749
467.434;   68.283;   -7.818;  725.873
468.023;   68.997;   -7.678;  658.357
468.613;   66.517;  -10.939;  713.946
469.202;   70.213;  -10.118;  646.507
469.791;   75.452;   -9.108;  737.811
470.381;   76.816;   -6.058;  742.813
470.970;   76.101;  -10.428;  711.099
471.559;   77.149;  -10.268;  733.291
472.148;   79.998;   -8.448;  675.737
472.738;   82.090;   -6.917;  765.466
473.327;   81.561;  -11.978;  637.529
473.916;   81.111;  -11.888;  737.446
474.505;   86.284;   -9.437;  751.703
475.094;   88.322;   -6.747;  806.570
475.683;   88.161;   -9.367;  797.699
476.272;   88.384;  -12.637;  730.632
476.861;   91.884;  -10.027;  706.754
477.449;   97.640;   -8.716;  728.487
478.038;   91.603;   -9.577;  692.513
478.627;   93.159;   -9.718;  714.852
479.216;  100.432;   -8.947;  769.441
479.805;  103.015;   -6.256;  783.375
480.393;  102.639;   -7.937; 1008.945
480.982;  102.354;   -7.717;  874.501
481.571;  108.546;   -9.266;  858.333
482.159;  108.582;   -7.636;  705.386
482.748;  108.319;   -9.667;  821.385
483.336;  113.479;  -10.376;  858.209
483.925;  114.324;   -7.147;  774.373
484.513;  121.287;   -7.996;  758.962
485.102;  118.292;  -10.027;  810.965
485.690;  126.669;  -10.446; 1011.050
486.278;  128.227;   -8.446;  979.329
486.867;  128.998;   -6.356;  809.662
487.455;  130.923;   -9.136;  898.229
488.043;  132.892;  -10.646;  748.361
488.631;  141.972;   -7.456; 1005.079
489.220;  146.466;   -6.636;  908.626
489.808;  146.018;  -11.036;  741.415
490.396;  154.591;  -10.246;  914.645
490.984;  160.729;   -8.556;  830.161
491.572;  172.827;   -5.886;  940.315
492.160;  179.040;   -9.486;  919.081
492.748;  190.897;  -10.976;  884.341
493.336;  214.824;   -8.776; 1019.693
493.924;  239.961;   -5.465;  958.077
494.512;  271.913;   -9.986; 1066.638
495.100;  315.258;  -10.636; 1103.280
495.687;  371.863;  -10.885; 1206.373
496.275;  438.265;   -8.126; 1150.796
496.863;  524.813;  -10.586; 1281.171
497.451;  630.962;  -11.926; 1386.805
498.038;  746.400;  -10.885; 1556.729
498.626;  877.348;   -6.315; 1741.407
499.214; 1029.767;   -7.326; 2016.609
499.801; 1211.415;  -11.906; 2220.633
500.389; 1410.306;  -10.466; 2312.494
500.976; 1658.212;   -5.236; 2744.849
501.564; 2053.291;   -8.936; 3148.565
502.151; 2630.468;  -13.176; 3515.999
502.738; 3213.570;  -10.646; 3971.274
503.326; 3671.903;   -9.525; 4403.796
503.913; 3955.621;  -10.856; 5161.749
504.500; 4397.791;  -11.586; 5986.420
505.088; 5017.987;  -10.336; 6381.201
505.675; 5241.420;   -6.355; 6925.547
506.262; 5669.129;   -9.046; 7619.060
506.849; 6149.162;  -10.416; 8733.969
507.436; 6412.718;  -10.305; 9790.121
508.023; 7177.527;   -5.496; 9985.472
508.610; 7951.395;   -7.856;10434.618
509.197; 9379.389;  -10.097;11198.435
509.784;10817.691;  -10.886;12391.194
510.371;11773.307;   -9.315;13603.713
510.958;12459.087;   -9.936;14426.586
511.545;12457.611;   -9.326;15243.775
512.132;13062.254;  -10.075;15945.876
512.719;14587.447;   -7.796;16340.369
513.305;17050.742;  -10.606;18011.766
513.892;17912.521;  -11.486;19754.971
514.479;18831.473;   -9.126;20967.805
515.066;19652.416;   -6.026;22299.793
515.652;19494.459;   -8.466;22908.660
516.239;20298.695;  -10.886;23798.875
516.825;22145.912;  -11.496;25567.275
517.412;23569.598;   -5.796;28154.959
517.998;23764.203;  -10.506;28344.111
518.585;23475.844;  -10.076;27134.219
519.171;23760.076;   -8.315;27268.576
519.758;24759.895;   -8.596;28964.129
520.344;25911.234;   -8.466;30664.494
520.930;28000.889;  -11.006;32550.605
521.516;29149.375;  -10.495;35422.895
522.103;30107.689;   -5.526;38280.004
522.689;31722.117;   -8.746;37835.117
523.275;32572.949;  -11.376;37288.613
523.861;33473.680;  -11.156;37281.395
524.447;34064.055;   -8.135;37846.949
525.033;34505.648;   -7.896;38321.949
525.619;37048.539;  -12.476;38579.285
526.205;37803.914;   -9.516;40622.875
526.791;37055.738;   -6.926;42258.836
527.377;37784.461;   -8.346;42966.902
527.963;39240.176;   -8.717;42018.949
528.549;39155.965;  -11.016;42476.828
529.135;38629.531;   -8.536;41854.852
529.721;37701.477;   -9.666;41237.711
530.306;37211.371;  -10.066;41259.445
530.892;35942.066;  -11.356;41506.047
531.478;37212.734;   -6.596;43559.613
532.063;39648.859;   -8.836;47695.563
532.649;41451.645;  -10.047;50808.324
533.235;42530.785;   -9.746;51787.500
533.820;44382.047;   -6.566;52145.035
534.406;46297.625;  -10.817;51133.488
534.991;47961.859;   -9.416;49996.805
535.576;43312.645;   -9.036;48882.852
536.162;42157.902;   -6.156;46942.285
536.747;43335.656;  -11.607;45711.746
537.333;44987.434;  -11.787;48510.180
537.918;45492.918;  -12.437;50439.891
538.503;44635.941;   -7.196;50863.711
539.088;45834.402;  -10.556;50906.922
539.673;46923.000;   -8.767;52621.965
540.259;45043.391;  -10.026;52368.094
540.844;43870.695;   -7.416;50879.109
541.429;45227.633;   -9.467;52077.777
542.014;47009.309;   -9.527;52716.695
542.599;48447.344;   -9.946;52363.281
543.184;46869.078;   -7.927;53187.137
543.769;45534.344;   -9.297;54697.605
544.354;43456.387;  -10.127;53913.914
544.938;42246.375;   -9.267;49680.164
545.523;43556.902;   -6.506;47386.277
546.108;45720.938;   -9.787;49151.949
546.693;46073.625;  -11.587;51384.637
547.278;45342.434;  -10.986;51853.254
547.862;43103.586;   -8.206;51173.750
548.447;42895.277;  -10.067;51691.395
549.031;46636.086;   -9.637;52456.703
549.616;47883.305;   -9.926;52714.516
550.201;46382.039;   -6.347;52414.598
550.785;44743.133;   -7.917;52355.059
551.370;39793.930;  -10.867;54589.453
551.954;42512.070;   -9.047;58267.348
552.538;46076.398;   -7.827;59062.176
553.123;45711.031;  -10.287;58115.285
553.707;44616.531;  -12.178;56556.285
554.291;45402.699;   -8.717;56201.668
554.876;45695.430;   -7.457;55335.762
555.460;45348.273;  -10.387;54155.703
556.044;44854.660;   -9.618;53721.484
556.628;43930.480;  -11.567;53731.016
557.212;45940.359;   -8.097;54312.531
557.796;45382.055;  -11.077;53797.773
558.380;43271.934;  -11.108;56145.984
558.964;40552.027;   -9.057;57277.930
559.548;39312.738;   -6.977;56459.641
560.132;39996.984;  -11.457;54434.543
560.716;40500.438;  -11.378;54800.617
561.300;41214.680;   -9.577;57606.945
561.884;42616.285;   -7.127;58972.445
562.467;45231.363;   -7.118;57327.570
563.051;44105.488;  -13.358;54962.434
563.635;43660.801;  -10.178;52594.473
564.219;44153.383;   -7.837;50610.410
564.802;43354.344;  -11.398;49551.180
565.386;42459.109;  -12.788;48370.953
565.969;41170.645;   -9.077;48178.871
566.553;41910.797;   -6.207;49957.305
567.136;42562.109;   -8.568;50369.594
567.720;42701.703;  -11.868;49492.004
568.303;42487.934;   -8.268;50616.352
568.887;40663.574;   -8.698;50727.148
569.470;40252.660;   -6.808;51698.379
570.053;37926.328;  -13.188;52122.078
570.637;35826.238;  -12.037;52536.438
571.220;35524.586;   -8.577;51186.098
571.803;35989.008;   -8.498;51032.762
572.386;34484.203;  -10.498;49609.887
572.969;33643.918;   -9.388;48285.926
573.552;33882.434;   -8.338;47624.285
574.135;35721.453;   -8.518;45498.641
574.718;37018.480;  -13.628;41970.434
575.301;34733.965;  -10.893;41447.137
575.884;32449.447;   -8.158;40923.836
576.467;35465.223;  -10.328;45267.723
577.050;35947.406;  -13.058;48175.543
577.633;36388.391;   -9.458;47729.328
578.216;35547.152;   -8.928;47579.793
578.799;33816.266;   -9.358;47820.996
579.381;33238.457;  -11.388;48115.551
579.964;32655.920;  -11.718;47333.766
580.547;34079.715;   -8.588;46668.969
581.129;35003.074;   -8.859;44466.141
581.712;33334.918;  -10.729;44164.922
582.294;33648.934;  -11.118;46477.855
582.877;34243.188;   -5.218;48244.254
583.459;34681.879;   -8.679;47437.895
584.042;34036.477;  -10.709;46943.219
584.624;33792.398;  -11.669;46792.227
585.206;37081.996;   -8.218;46557.250
585.789;36305.945;  -10.569;45793.773
586.371;34919.039;  -11.859;43836.391
586.953;32202.322;  -10.719;42972.492
587.536;30516.293;   -7.198;42487.211
588.118;32434.438;   -8.720;42086.414
588.700;33765.188;  -10.439;43389.930
589.282;32903.930;   -9.198;43646.039
589.864;32360.486;   -9.199;43438.109
590.446;31660.158;  -11.319;43151.926
591.028;32540.053;  -11.159;42781.867
591.610;32625.088;  -11.779;42839.098
592.192;29374.875;   -7.668;42820.402
592.774;28271.342;  -11.949;40724.277
593.356;27510.633;  -12.129;39874.789
593.937;27238.166;  -10.669;39980.648
594.519;26258.385;   -6.509;42069.633
595.101;27375.785;  -10.849;42976.031
