gmr_right
Integration time [ms]: 4415.405
Averaging Nr. [scans]: 10
Smoothing Nr. [pixels]: 0
Data measured with spectrometer [name]: 7414430SP
Wave   ;Sample   ;Dark     ;Reference
[nm]   ;[counts] ;[counts] ;[counts] 

288.544; 5619.711; 5481.567;    6.613
289.143; 4577.407; 4445.805;   14.216
289.742; 5973.558; 5944.782;   11.816
290.341; 5730.780; 5549.822;   -4.936
290.940; 5251.237; 5126.334;    0.852
291.538; 6639.014; 6565.967;    1.792
292.137; 5837.758; 5724.192;    6.262
292.736; 7681.880; 7451.822;    8.164
293.335; 5341.148; 5236.041;   -6.418
293.934; 5791.164; 5668.136;   -2.904
294.532; 8225.771; 8170.262;   -5.162
295.131; 6478.116; 6327.777;  -10.283
295.730; 6266.375; 6165.880;  -16.141
296.328; 6044.982; 5919.741;  -14.740
296.927; 6000.903; 5823.527;   -8.768
297.525; 5963.858; 5870.784;  -15.255
298.124; 4825.712; 4719.534;  -22.063
298.722; 5836.817; 5667.405;  -14.796
299.321; 5385.427; 5160.111;  -10.466
299.919; 5751.374; 5655.808;  -10.979
300.518; 5245.096; 5062.438;  -12.077
301.116; 5214.012; 5088.125;  -13.509
301.715; 5575.894; 5476.557;  -11.939
302.313; 5402.926; 5256.375;  -15.424
302.911; 5755.676; 5621.171;  -19.833
303.509; 7570.411; 7470.388;   -3.567
304.108; 5878.329; 5754.438;   -9.553
304.706; 6394.933; 6182.500;   -8.582
305.304; 6459.188; 6357.468;  -12.348
305.902; 6143.936; 5985.563;  -14.411
306.500; 5715.288; 5621.059;   -7.194
307.098; 5900.402; 5766.937;   -9.322
307.696; 6301.761; 6148.666;  -19.192
308.294; 5800.881; 5652.933;   -9.736
308.892; 6039.235; 5935.455;  -15.482
309.490; 5558.834; 5442.755;  -14.107
310.088; 6415.320; 6295.396;  -15.862
310.686; 6589.847; 6399.270;  -10.781
311.284; 6185.331; 6134.692;  -14.878
311.882; 5704.042; 5647.399;   -9.948
312.480; 5512.127; 5377.040;  -15.503
313.078; 6646.169; 6571.419;  -17.262
313.675; 5459.888; 5344.059;   -3.694
314.273; 6541.915; 6491.006;  -18.246
314.871; 4466.938; 4387.228;  -15.190
315.468; 5158.276; 5086.171;  -12.633
316.066; 5513.133; 5378.019;   -5.765
316.664; 5191.109; 5124.990;  -14.317
317.261; 7637.591; 7501.531;   -8.677
317.859; 6398.665; 6383.247;  -11.804
318.456; 6963.632; 6947.801;   -3.107
319.054; 6514.023; 6478.350;   -3.062
319.651; 6191.994; 6074.594;   -6.706
320.249; 6834.394; 6764.594;   -5.206
320.846; 5870.323; 5767.831;   -4.679
321.443; 7110.122; 7003.613;   -7.920
322.041; 6940.454; 6863.432;  -14.105
322.638; 5862.661; 5873.557;   -6.263
323.235; 5418.326; 5353.375;   -7.424
323.833; 6197.481; 6144.042;  -14.765
324.430; 4932.717; 4823.814;  -10.550
325.027; 7491.603; 7492.045;   -9.951
325.624; 5135.774; 5037.771;   -3.712
326.221; 5536.706; 5515.481;   -9.368
326.818; 6802.421; 6752.095;   -5.637
327.415; 5980.881; 5883.005;   -6.699
328.012; 5440.803; 5293.117;   -5.713
328.609; 5772.013; 5667.824;   -9.983
329.206; 6302.272; 6302.553;   -7.154
329.803; 5806.887; 5770.431;   -1.682
330.400; 5435.326; 5373.857;   -2.741
330.997; 6504.596; 6398.510;   -4.339
331.594; 6298.834; 6309.646;  -10.278
332.191; 5611.008; 5513.435;   -6.967
332.787; 6697.355; 6623.131;   -0.480
333.384; 5865.422; 5864.241;  -10.333
333.981; 6452.671; 6493.301;  -19.900
334.578; 5343.080; 5197.644;  -19.816
335.174; 5561.988; 5451.614;  -15.844
335.771; 6623.584; 6559.961;  -12.670
336.367; 5524.533; 5394.394;  -21.124
336.964; 6309.008; 6137.810;  -18.226
337.561; 5734.243; 5655.582;  -13.311
338.157; 7483.601; 7429.612;  -19.006
338.754; 6383.899; 6305.286;  -19.418
339.350; 5657.069; 5531.421;  -29.433
339.946; 6049.058; 5908.979;  -16.622
340.543; 6844.895; 6726.633;  -16.744
341.139; 5697.128; 5622.079;  -21.841
341.735; 6305.779; 6137.947;  -25.012
342.332; 5482.550; 5311.191;  -19.156
342.928; 6454.160; 6365.379;  -20.443
343.524; 6246.206; 6140.857;  -14.397
344.120; 6011.678; 6034.729;  -20.654
344.716; 5669.516; 5567.636;   -5.730
345.313; 6561.419; 6491.590;  -10.929
345.909; 4874.306; 4700.448;  -19.843
346.505; 6019.679; 5954.910;  -19.645
347.101; 6761.807; 6646.147;   -9.618
347.697; 6416.358; 6396.497;  -10.305
348.293; 4842.804; 4852.084;  -23.189
348.889; 6049.302; 5965.240;  -18.418
349.485; 5437.303; 5374.457;  -10.476
350.081; 6321.134; 6229.540;  -17.320
350.676; 5559.961; 5471.969;  -21.088
351.272; 6651.966; 6672.840;  -12.821
351.868; 6269.085; 6170.107;  -13.165
352.464; 5790.405; 5717.784;  -12.464
353.059; 5128.951; 5013.372;  -22.547
353.655; 6391.324; 6246.942;   -9.379
354.251; 6162.823; 6029.314;   -8.266
354.846; 6043.806; 6051.520;  -17.705
355.442; 6073.867; 6058.985;   -9.317
356.038; 6077.134; 6001.648;  -11.049
356.633; 5868.544; 5753.728;  -10.006
357.229; 5832.137; 5792.494;  -13.120
357.824; 5681.208; 5618.256;  -15.647
358.420; 5395.717; 5342.335;  -19.204
359.015; 5517.418; 5433.553;  -12.263
359.610; 6267.871; 6199.748;  -16.421
360.206; 4693.533; 4613.949;  -20.074
360.801; 5076.846; 4989.573;  -13.277
361.396; 5900.757; 5775.979;   -5.822
361.992; 5354.208; 5307.256;  -11.247
362.587; 5416.348; 5357.827;  -21.502
363.182; 5570.138; 5457.229;   -7.461
363.777; 6073.739; 6069.447;   -8.719
364.372; 6020.387; 6050.361;  -14.590
364.967; 5543.333; 5475.840;  -15.145
365.563; 6731.617; 6697.708;   -7.192
366.158; 5510.122; 5421.507;   -5.662
366.753; 5157.435; 5143.757;   -8.378
367.348; 6127.244; 6005.246;  -14.990
367.942; 5625.958; 5506.497;   -6.005
368.537; 6164.528; 6153.150;  -11.504
369.132; 5752.060; 5757.342;  -10.576
369.727; 5074.944; 5037.765;  -12.573
370.322; 4655.846; 4595.091;  -11.560
370.917; 5854.061; 5842.969;  -10.388
371.511; 7353.484; 7311.299;   -9.161
372.106; 6568.733; 6524.840;  -10.245
372.701; 4726.425; 4616.606;  -10.158
373.296; 7258.891; 7212.424;   -4.719
373.890; 5298.848; 5243.827;  -11.802
374.485; 5779.970; 5755.458;  -13.500
375.079; 6191.514; 6165.272;   -6.276
375.674; 6876.802; 6819.348;   -0.447
376.268; 5690.927; 5693.824;   -6.916
376.863; 4774.473; 4784.930;  -14.483
377.457; 5501.731; 5440.104;   -6.903
378.052; 6474.344; 6456.656;   -9.844
378.646; 6323.907; 6323.666;  -12.601
379.240; 6114.892; 6030.570;  -14.715
379.835; 5339.894; 5223.005;  -12.331
380.429; 4583.688; 4499.880;   -9.074
381.023; 6684.976; 6686.475;   -1.729
381.617; 5753.508; 5705.293;  -13.714
382.212; 5758.400; 5704.022;   -7.060
382.806; 6498.631; 6396.104;   -2.303
383.400; 5760.895; 5801.524;   -0.815
383.994; 5701.779; 5653.428;   -4.429
384.588; 5983.244; 5945.137;   -6.261
385.182; 6270.071; 6274.639;    0.008
385.776; 6148.105; 6114.302;   -3.247
386.370; 5861.911; 5866.729;   -1.030
386.964; 5922.216; 5861.118;   -1.346
387.558; 5087.982; 5033.563;   -2.020
388.152; 5877.530; 5824.887;   -5.345
388.745; 7239.682; 7222.972;   -2.774
389.339; 6393.136; 6398.385;    3.510
389.933; 5869.277; 5911.655;    5.280
390.527; 7678.795; 7723.223;    2.610
391.120; 5139.049; 5074.455;   -7.914
391.714; 6153.688; 6149.989;   -1.903
392.308; 6917.352; 6811.480;    6.023
392.901; 5615.637; 5654.012;   -4.103
393.495; 5225.435; 5211.686;    3.284
394.089; 6890.881; 6843.864;    8.655
394.682; 6196.718; 6168.854;    2.312
395.275; 6407.696; 6403.851;   -7.402
395.869; 5951.252; 5942.626;   -1.072
396.462; 5414.024; 5435.979;    6.454
397.056; 6862.304; 6978.566;    8.494
397.649; 6590.856; 6572.689;    1.599
398.242; 6409.611; 6452.210;    3.153
398.836; 6867.763; 6924.404;   11.395
399.429; 5501.215; 5454.381;   14.695
400.022; 5934.901; 5910.649;    3.627
400.615; 7340.321; 7402.917;    8.383
401.208; 6094.709; 6070.474;   13.295
401.802; 6302.707; 6342.039;    6.211
402.395; 6160.301; 6126.649;    7.227
402.988; 6252.318; 6313.481;    2.700
403.581; 5633.365; 5668.250;   11.225
404.174; 6020.938; 6065.711;   18.922
404.767; 5593.897; 5544.959;   14.169
405.360; 5571.361; 5603.596;    8.999
405.953; 6813.373; 6861.483;   13.138
406.545; 6533.610; 6542.691;   13.937
407.138; 5476.045; 5510.982;   10.869
407.731; 5443.486; 5483.144;   12.768
408.324; 5849.119; 5857.034;   22.921
408.917; 6120.071; 6175.639;   15.308
409.509; 6719.741; 6749.184;   12.239
410.102; 5837.314; 5889.791;   13.741
410.695; 5941.607; 5923.110;   20.249
411.287; 5328.582; 5452.936;   21.793
411.880; 5187.796; 5246.813;   22.965
412.472; 5501.256; 5503.170;   15.082
413.065; 5735.949; 5735.526;   23.423
413.657; 5135.292; 5136.232;   21.077
414.250; 5769.153; 5801.180;   12.349
414.842; 6127.641; 6125.665;   20.423
415.434; 5124.392; 5145.124;   19.906
416.027; 5777.702; 5797.902;   26.574
416.619; 6428.735; 6455.239;   15.705
417.211; 5322.865; 5399.212;   17.791
417.804; 5576.251; 5649.034;   30.244
418.396; 5458.095; 5505.186;   24.177
418.988; 5923.867; 5929.539;   24.904
419.580; 5055.779; 5079.981;   20.692
420.172; 4838.725; 4804.532;   22.275
420.764; 5964.294; 6028.040;   26.773
421.356; 5782.841; 5735.846;   25.731
421.948; 6076.027; 6057.486;   24.876
422.540; 6038.678; 5988.426;   30.042
423.132; 5331.554; 5316.469;   32.728
423.724; 4944.226; 4990.750;   21.317
424.316; 5573.676; 5562.991;   29.359
424.908; 5269.344; 5306.763;   28.798
425.500; 5796.165; 5839.766;   30.512
426.092; 5771.856; 5813.795;   26.741
426.683; 6248.262; 6207.331;   27.029
427.275; 5702.694; 5706.112;   32.611
427.867; 5884.016; 5901.224;   33.796
428.458; 6596.752; 6570.214;   34.453
429.050; 6139.177; 6174.799;   34.255
429.642; 6665.749; 6702.152;   39.082
430.233; 4876.671; 4973.373;   41.138
430.825; 6557.741; 6574.290;   31.581
431.416; 6267.629; 6312.776;   35.755
432.008; 5743.406; 5785.518;   40.566
432.599; 5750.782; 5835.669;   46.322
433.190; 5631.284; 5673.924;   46.897
433.782; 4974.990; 5016.940;   41.069
434.373; 7901.805; 7932.891;   48.778
434.964; 5234.002; 5238.937;   50.078
435.556; 5596.089; 5643.313;   52.381
436.147; 6774.733; 6783.538;   38.251
436.738; 6204.306; 6216.626;   47.237
437.329; 6336.412; 6411.497;   61.304
437.920; 5770.148; 5909.043;   48.611
438.511; 4871.992; 4911.158;   44.910
439.103; 5402.920; 5442.359;   62.404
439.694; 5962.115; 6077.560;   63.075
440.285; 6533.114; 6606.342;   61.033
440.876; 7619.959; 7624.930;   57.249
441.466; 4911.434; 4938.128;   61.306
442.057; 5747.287; 5784.021;   65.773
442.648; 6595.277; 6629.352;   65.676
443.239; 5368.224; 5509.049;   55.963
443.830; 6175.083; 6119.850;   69.631
444.421; 5625.280; 5690.269;   69.943
445.011; 6032.755; 6044.240;   72.791
445.602; 6492.097; 6527.138;   68.848
446.193; 4022.548; 4025.969;   80.044
446.783; 5360.896; 5385.583;   82.599
447.374; 5921.941; 5929.362;   77.419
447.964; 6236.971; 6208.335;   72.605
448.555; 7130.006; 7223.662;   82.041
449.145; 5640.770; 5738.081;   76.230
449.736; 6985.205; 7014.854;   75.545
450.326; 6121.353; 6179.876;   67.945
450.917; 5738.534; 5723.790;   77.598
451.507; 5049.385; 5082.658;   68.027
452.097; 6425.417; 6490.368;   67.771
452.688; 6283.078; 6304.533;   62.884
453.278; 4521.764; 4527.655;   65.512
453.868; 6881.215; 6909.113;   71.796
454.458; 5487.782; 5508.596;   60.956
455.048; 6067.139; 6086.480;   62.356
455.639; 4632.942; 4670.133;   58.782
456.229; 5974.571; 6017.371;   65.209
456.819; 6323.856; 6310.384;   61.466
457.409; 6607.764; 6598.245;   59.967
457.999; 6162.979; 6187.713;   58.093
458.589; 5623.897; 5658.654;   59.536
459.179; 6011.142; 6018.506;   55.994
459.769; 5140.306; 5190.143;   43.624
460.358; 6710.001; 6708.826;   46.978
460.948; 5678.919; 5771.766;   49.821
461.538; 5384.098; 5352.872;   54.678
462.128; 5447.271; 5494.371;   49.309
462.717; 5796.103; 5833.634;   52.774
463.307; 5773.377; 5816.940;   48.101
463.897; 5313.187; 5357.948;   45.606
464.486; 7114.579; 7205.232;   45.010
465.076; 6027.137; 6073.297;   45.519
465.666; 5139.457; 5225.046;   50.058
466.255; 6536.963; 6590.100;   44.463
466.845; 5279.335; 5408.971;   41.206
467.434; 5897.477; 5963.350;   44.847
468.023; 5158.333; 5214.607;   46.760
468.613; 5797.097; 5777.654;   39.736
469.202; 5102.038; 5139.515;   46.461
469.791; 5854.987; 5905.020;   47.944
470.381; 5853.011; 5864.085;   47.529
470.970; 5621.832; 5605.980;   43.773
471.559; 5932.009; 5959.650;   41.646
472.148; 5198.482; 5252.221;   37.914
472.738; 6040.758; 6089.373;   48.071
473.327; 4847.215; 4874.257;   47.871
473.916; 5835.910; 5828.759;   37.716
474.505; 5912.581; 5974.484;   40.256
475.094; 6438.182; 6482.811;   43.269
475.683; 6255.795; 6371.471;   36.499
476.272; 5639.865; 5731.389;   44.542
476.861; 5379.071; 5407.887;   42.297
477.449; 5502.945; 5546.784;   46.878
478.038; 5167.386; 5151.392;   35.156
478.627; 5397.879; 5446.267;   42.514
479.216; 5844.958; 5893.335;   43.937
479.805; 5908.327; 5937.625;   51.393
480.393; 8091.983; 8145.920;   53.239
480.982; 6893.724; 6924.600;   38.955
481.571; 6611.987; 6654.682;   45.436
482.159; 5045.742; 5077.721;   51.007
482.748; 6193.854; 6295.164;   49.695
483.336; 6475.213; 6456.484;   48.280
483.925; 5478.806; 5467.250;   47.166
484.513; 5445.106; 5475.321;   55.404
485.102; 5913.672; 5977.104;   54.238
485.690; 7766.884; 7717.101;   55.748
486.278; 7482.763; 7496.097;   55.934
486.867; 5742.928; 5782.952;   57.106
487.455; 6535.203; 6500.668;   56.979
488.043; 5068.333; 5053.642;   57.564
488.631; 7437.546; 7444.375;   57.432
489.220; 6494.259; 6447.516;   63.646
489.808; 4828.198; 4790.870;   65.449
490.396; 6414.478; 6508.084;   61.977
490.984; 5437.214; 5490.074;   68.834
491.572; 6416.761; 6475.361;   70.775
492.160; 6051.232; 6070.642;   67.564
492.748; 5587.550; 5624.583;   66.808
493.336; 6502.418; 6545.354;   79.747
493.924; 5552.660; 5510.734;   88.688
494.512; 6401.347; 6351.001;   84.120
495.100; 6267.911; 6290.639;   86.250
495.687; 6637.593; 6684.661;  103.074
496.275; 5376.068; 5360.486;  108.717
496.863; 5572.230; 5635.797;  107.035
497.451; 5499.221; 5572.718;  117.993
498.038; 5810.297; 5881.833;  120.116
498.626; 5578.969; 5611.704;  143.059
499.214; 6013.362; 5977.097;  153.434
499.801; 5851.955; 5898.863;  175.121
500.389; 4751.611; 4766.602;  185.617
500.976; 6105.323; 6136.526;  215.789
501.564; 5886.906; 5944.840;  240.321
502.151; 4206.693; 4163.698;  267.007
502.738; 5513.340; 5479.358;  317.961
503.326; 5636.946; 5638.856;  361.216
503.913; 5903.452; 6019.282;  401.433
504.500; 6095.507; 6033.949;  446.492
505.088; 5143.110; 5161.012;  512.063
505.675; 5636.055; 5645.826;  586.387
506.262; 5572.215; 5691.702;  671.021
506.849; 5744.648; 5799.219;  759.062
507.436; 6533.363; 6604.688;  849.788
508.023; 5713.369; 5724.595;  944.288
508.610; 6371.439; 6444.249; 1020.690
509.197; 6145.831; 6140.315; 1089.052
509.784; 5752.272; 5717.176; 1133.776
510.371; 4752.167; 4775.968; 1165.501
510.958; 5898.028; 5882.843; 1251.735
511.545; 6816.287; 6857.054; 1350.248
512.132; 5732.042; 5698.793; 1525.945
512.719; 5106.952; 5104.282; 1834.933
513.305; 5276.292; 5310.962; 1965.349
513.892; 6706.138; 6702.550; 1963.265
514.479; 5907.059; 5832.516; 2046.446
515.066; 6493.201; 6464.414; 2252.803
515.652; 5842.167; 5881.377; 2567.247
516.239; 6270.490; 6313.117; 2636.919
516.825; 4891.158; 4921.298; 2482.304
517.412; 7283.035; 7283.559; 2427.031
517.998; 5623.916; 5628.919; 2540.463
518.585; 5541.594; 5531.698; 2609.007
519.171; 5884.860; 5920.734; 2842.088
519.758; 4938.644; 4972.529; 3090.703
520.344; 6393.572; 6431.176; 3176.076
520.930; 5104.050; 5097.474; 3295.037
521.516; 6109.118; 6125.727; 3500.959
522.103; 6745.606; 6779.321; 3736.704
522.689; 5568.869; 5566.632; 3971.022
523.275; 6544.294; 6608.807; 4213.778
523.861; 5646.597; 5668.242; 4190.361
524.447; 6499.033; 6462.714; 4070.602
525.033; 6610.113; 6618.856; 4088.892
525.619; 5284.114; 5328.593; 4416.851
526.205; 4942.576; 5023.866; 4836.835
526.791; 5573.046; 5627.483; 4885.903
527.377; 5340.396; 5337.652; 4544.907
527.963; 5906.146; 5968.302; 4321.995
528.549; 6036.957; 6039.599; 4473.979
529.135; 5235.362; 5226.988; 4788.663
529.721; 5837.037; 5866.922; 4888.577
530.306; 7946.157; 7995.599; 4775.779
530.892; 5497.731; 5557.906; 4793.906
531.478; 5423.830; 5415.170; 4956.948
532.063; 5144.636; 5180.705; 5136.936
532.649; 7186.812; 7262.157; 5336.867
533.235; 5198.218; 5212.764; 5748.092
533.820; 6655.050; 6608.546; 6456.875
534.406; 5665.360; 5666.180; 6590.167
534.991; 5250.118; 5289.655; 6179.622
535.576; 5699.958; 5694.926; 6098.691
536.162; 8009.317; 7974.028; 6441.234
536.747; 4910.750; 4940.101; 6816.224
537.333; 5246.590; 5302.154; 6889.752
537.918; 5724.871; 5755.368; 7154.280
538.503; 5332.784; 5371.101; 7150.848
539.088; 6005.807; 6099.467; 7253.308
539.673; 5503.322; 5513.345; 7625.180
540.259; 5326.270; 5372.741; 8226.793
540.844; 4662.313; 4634.856; 8745.092
541.429; 7049.499; 7120.016; 8762.553
542.014; 4849.328; 4949.771; 8871.497
542.599; 5997.851; 6063.583; 8886.008
543.184; 5005.323; 5041.082; 9079.139
543.769; 5318.990; 5326.045; 9076.182
544.354; 5534.284; 5529.138; 8354.081
544.938; 5965.664; 5998.352; 8236.809
545.523; 7002.551; 7062.691; 8222.179
546.108; 5723.592; 5738.999; 8114.082
546.693; 5668.360; 5653.590; 8535.912
547.278; 5724.177; 5769.494; 9238.322
547.862; 5691.077; 5704.975; 9034.405
548.447; 6442.192; 6339.890; 7795.011
549.031; 5523.798; 5521.425; 7485.099
549.616; 5926.059; 5912.444; 7626.308
550.201; 5352.670; 5297.260; 7627.909
550.785; 6210.959; 6214.963; 7859.125
551.370; 4991.264; 4994.762; 7990.654
551.954; 6405.325; 6431.926; 8196.468
552.538; 6229.048; 6355.256; 7959.495
553.123; 5342.119; 5310.801; 7964.826
553.707; 5552.948; 5611.185; 8515.957
554.291; 6720.253; 6768.055; 8724.024
554.876; 6345.495; 6346.844; 8524.211
555.460; 5368.380; 5443.484; 8704.456
556.044; 5332.735; 5278.934; 9141.473
556.628; 5764.981; 5740.702; 9250.197
557.212; 6599.453; 6627.428; 9444.237
557.796; 5598.860; 5621.699; 9379.783
558.380; 6062.759; 6056.000; 9353.658
558.964; 5875.778; 5879.121; 9210.310
559.548; 4899.944; 4817.085; 8475.153
560.132; 5495.377; 5477.422; 7954.084
560.716; 5058.614; 5065.040; 7489.529
561.300; 4985.536; 4919.223; 7211.952
561.884; 6218.608; 6281.613; 7141.313
562.467; 6134.448; 6136.076; 7155.386
563.051; 5756.454; 5819.092; 7323.158
563.635; 5654.579; 5635.267; 7709.114
564.219; 5677.972; 5793.623; 7678.855
564.802; 6173.853; 6082.983; 7376.187
565.386; 5823.872; 5788.142; 7054.372
565.969; 6758.014; 6725.002; 6589.196
566.553; 7423.559; 7384.373; 6279.371
567.136; 6661.668; 6652.970; 5967.930
567.720; 5856.842; 5855.687; 5660.703
568.303; 6070.990; 6024.082; 5648.615
568.887; 5903.673; 5900.250; 5618.443
569.470; 6065.311; 6009.495; 5411.875
570.053; 6339.654; 6312.610; 5149.274
570.637; 5356.738; 5194.587; 5122.798
571.220; 6423.842; 6360.649; 4957.369
571.803; 7475.629; 7391.436; 4933.018
572.386; 5730.392; 5532.818; 4840.973
572.969; 5710.691; 5597.191; 4592.886
573.552; 5875.602; 5723.006; 4348.387
574.135; 5286.843; 5165.314; 4002.290
574.718; 5525.340; 5343.841; 3654.773
575.301; 5539.595; 5304.195; 3502.288
575.884; 5553.851; 5264.548; 3349.803
576.467; 6873.742; 6533.687; 3191.403
577.050; 6364.375; 5972.505; 3062.418
577.633; 7587.912; 7248.194; 3214.200
578.216; 6031.626; 5558.591; 3284.889
578.799; 6083.630; 5724.172; 3189.777
579.381; 7975.491; 7434.709; 3064.502
579.964; 5861.048; 5321.185; 2888.357
580.547; 6592.738; 5915.515; 2905.760
581.129; 7590.248; 6835.004; 2966.849
581.712; 6922.222; 6015.829; 2887.292
582.294; 6738.336; 5849.670; 2771.631
582.877; 8541.437; 7448.779; 2711.602
583.459; 6866.956; 5788.865; 2577.049
584.042; 6888.841; 5660.878; 2454.707
584.624; 6586.825; 5359.783; 2305.893
585.206; 5819.263; 4502.581; 2189.546
585.789; 6881.441; 5443.987; 2112.577
586.371; 7588.496; 6153.545; 2153.065
586.953; 7907.081; 6358.040; 2197.806
587.536; 8422.826; 6688.591; 2105.489
588.118; 7398.350; 5611.886; 1963.911
588.700; 8748.660; 6837.664; 1843.179
589.282; 8292.715; 6205.185; 1813.834
589.864; 8144.957; 5914.974; 1777.620
590.446; 7079.226; 4743.410; 1733.780
591.028; 8503.812; 5847.532; 1676.008
591.610; 7665.702; 4786.935; 1631.649
592.192; 8949.058; 5910.192; 1632.362
592.774; 8197.552; 5196.694; 1569.507
593.356; 8492.133; 5367.054; 1524.539
593.937; 8803.800; 5418.089; 1569.720
594.519;10345.299; 6522.980; 1569.049
595.101; 8822.843; 4808.242; 1545.452
