
Integration time [ms]:   3.276
Averaging Nr. [scans]: 1000
Smoothing Nr. [pixels]: 0
Data measured with spectrometer [name]: 7414430SP
Wave   ;Sample   ;Dark     ;Reference
[nm]   ;[counts] ;[counts] ;[counts] 

288.544;  160.054;    7.793;  793.890
289.143;  163.419;    7.462;  681.602
289.742;  164.121;    8.602;  828.814
290.341;  149.498;    1.321;  789.841
290.940;  140.652;   -0.709;  730.702
291.538;  142.699;    0.881;  881.108
292.137;  142.163;    0.122;  792.581
292.736;  143.073;   -1.929;  975.101
293.335;  139.750;   -8.229;  735.086
293.934;  142.395;   -5.279;  781.677
294.532;  141.879;   -1.369; 1031.958
295.131;  127.643;   -7.641;  834.394
295.730;  128.139;   -8.420;  809.588
296.328;  125.784;   -5.611;  783.442
296.927;  124.858;   -5.781;  779.652
297.525;  125.338;   -6.361;  781.236
298.124;  118.517;  -11.382;  654.009
298.722;  123.635;   -7.641;  761.933
299.321;  118.559;   -6.811;  708.597
299.919;  115.215;   -6.991;  751.918
300.518;  111.462;  -10.362;  689.338
301.116;  115.482;   -9.581;  691.381
301.715;  115.340;   -4.891;  730.222
302.313;  113.507;   -8.801;  704.943
302.911;  108.024;   -8.522;  733.830
303.509;  114.413;   -6.171;  925.627
304.108;  111.509;   -7.311;  760.383
304.706;  110.796;   -8.321;  801.664
305.304;  105.669;  -10.222;  796.707
305.902;  110.361;   -6.021;  784.484
306.500;  105.372;   -4.971;  728.200
307.098;  103.521;   -7.061;  746.560
307.696;  103.302;   -8.801;  780.432
308.294;  104.166;   -6.411;  731.359
308.892;  105.596;   -2.901;  759.769
309.490;  101.311;   -5.041;  712.161
310.088;   98.849;   -5.002;  788.444
310.686;  103.949;   -2.041;  821.749
311.284;   98.833;   -2.351;  766.040
311.882;   95.762;   -4.422;  731.225
312.480;   93.188;   -4.192;  697.167
313.078;   95.707;   -1.172;  808.331
313.675;   95.578;   -2.601;  691.600
314.273;   89.882;   -1.312;  797.837
314.871;   89.730;   -3.942;  589.829
315.468;   88.589;   -2.802;  652.090
316.066;   91.278;   -0.701;  694.427
316.664;   83.225;   -4.362;  656.351
317.261;   87.621;   -2.872;  910.128
317.859;   83.818;   -2.022;  768.735
318.456;   84.533;   -0.531;  830.096
319.054;   79.014;   -3.912;  787.828
319.651;   77.751;   -4.752;  759.928
320.249;   77.519;   -2.602;  810.188
320.846;   75.167;   -0.821;  714.286
321.443;   71.951;   -4.642;  832.135
322.041;   70.227;   -5.002;  812.315
322.638;   66.829;   -3.982;  701.456
323.235;   68.073;   -3.411;  665.683
323.833;   65.571;   -7.361;  740.354
324.430;   60.789;   -8.611;  615.900
325.027;   61.514;   -4.061;  876.855
325.624;   60.782;   -4.031;  644.532
326.221;   57.582;   -7.481;  689.717
326.818;   57.487;   -5.281;  818.332
327.415;   60.723;   -7.460;  748.828
328.012;   59.780;   -5.510;  690.585
328.609;   56.897;   -7.880;  731.389
329.206;   56.536;   -8.331;  778.621
329.803;   57.407;   -5.121;  737.841
330.400;   58.390;   -4.510;  704.260
330.997;   59.439;   -6.441;  817.147
331.594;   58.307;   -8.831;  788.185
332.191;   65.015;   -7.621;  728.722
332.787;   67.276;   -4.591;  844.463
333.384;   65.679;   -7.412;  763.093
333.981;   65.310;   -8.293;  815.687
334.578;   68.226;   -7.052;  708.378
335.174;   71.004;   -3.102;  731.469
335.771;   68.923;   -5.943;  836.456
336.367;   67.973;   -7.393;  710.631
336.964;   73.125;   -4.063;  793.266
337.561;   69.623;   -3.813;  731.112
338.157;   65.414;   -4.654;  911.916
338.754;   63.548;   -7.934;  796.589
339.350;   63.675;   -4.414;  722.493
339.946;   64.099;   -4.664;  773.135
340.543;   56.242;   -6.375;  846.136
341.139;   49.201;   -9.815;  720.836
341.735;   48.130;   -4.526;  772.593
342.332;   47.001;   -4.895;  691.472
342.928;   45.699;   -4.295;  795.394
343.524;   39.640;   -5.476;  761.684
344.120;   37.190;   -5.856;  738.562
344.716;   39.439;   -2.155;  723.717
345.313;   36.284;   -6.275;  795.342
345.909;   31.876;   -8.815;  627.336
346.505;   33.036;   -5.305;  740.247
347.101;   34.113;   -2.674;  827.864
347.697;   32.894;   -4.344;  785.398
348.293;   27.869;   -9.975;  627.244
348.889;   30.242;   -5.774;  745.914
349.485;   29.108;   -5.004;  688.205
350.081;   28.806;   -4.704;  772.592
350.676;   24.394;   -6.635;  691.606
351.272;   28.560;   -4.504;  809.530
351.868;   28.089;   -3.914;  780.497
352.464;   24.976;   -9.044;  723.932
353.059;   22.201;   -8.314;  646.017
353.655;   25.465;   -7.024;  777.063
354.251;   25.721;   -5.343;  759.845
354.846;   19.729;   -8.604;  740.646
355.442;   18.351;   -6.945;  753.071
356.038;   20.875;   -7.564;  751.708
356.633;   20.077;   -5.814;  728.594
357.229;   17.710;   -7.364;  724.757
357.824;   16.201;   -8.024;  703.600
358.420;   15.941;   -9.384;  679.726
359.015;   16.228;   -5.104;  695.357
359.610;   15.961;   -6.854;  763.920
360.206;   10.254;  -10.185;  603.240
360.801;   13.556;   -7.054;  646.503
361.396;   15.834;   -5.034;  725.975
361.992;   11.158;   -8.284;  668.220
362.587;    8.103;   -8.625;  670.160
363.182;   12.163;   -7.674;  689.631
363.777;   10.908;   -5.164;  738.242
364.372;   10.352;   -8.604;  737.314
364.967;    7.074;   -9.055;  680.744
365.563;   11.419;   -6.114;  815.567
366.158;    8.587;   -5.814;  685.161
366.753;    8.083;   -7.854;  649.263
367.348;    7.290;   -7.804;  746.056
367.942;    7.683;   -7.954;  697.298
368.537;    6.224;   -4.984;  754.245
369.132;    5.060;   -8.564;  703.428
369.727;    2.479;   -8.855;  638.079
370.322;    4.138;   -6.245;  580.186
370.917;    3.264;   -6.425;  710.646
371.511;    6.229;   -6.294;  861.834
372.106;    2.237;   -7.685;  776.964
372.701;   -0.136;   -7.335;  585.988
373.296;    4.658;   -4.564;  863.135
373.890;    0.078;  -10.235;  647.840
374.485;   -1.707;   -7.885;  691.199
375.079;    2.813;   -7.324;  738.685
375.674;    3.255;   -3.494;  812.970
376.268;   -1.546;   -8.525;  691.759
376.863;   -6.886;  -10.086;  580.327
377.457;   -0.142;   -7.025;  662.490
378.052;   -1.718;   -3.585;  764.884
378.646;   -3.863;   -7.595;  741.167
379.240;   -3.834;   -8.335;  721.176
379.835;   -2.456;   -5.785;  636.978
380.429;   -4.415;   -4.335;  562.557
381.023;   -5.641;   -6.805;  779.205
381.617;   -7.520;   -9.195;  680.106
382.212;   -3.683;   -6.905;  685.303
382.806;   -2.711;   -3.745;  760.690
383.400;   -8.028;   -7.745;  672.281
383.994;   -8.839;   -9.765;  664.870
384.588;   -3.954;   -6.564;  697.701
385.182;   -2.686;   -5.344;  726.624
385.776;   -5.388;   -8.514;  706.875
386.370;   -8.298;   -9.555;  681.968
386.964;   -6.652;   -8.715;  684.155
387.558;   -4.972;   -6.174;  598.360
388.152;   -9.207;   -8.725;  681.959
388.745;   -7.408;   -7.965;  814.707
389.339;   -4.885;   -5.924;  747.642
389.933;   -4.293;   -5.524;  695.370
390.527;   -5.901;   -7.114;  859.029
391.120;  -11.784;  -10.725;  595.318
391.714;   -7.459;   -8.035;  711.633
392.308;   -5.461;   -3.574;  780.253
392.901;   -9.951;   -7.245;  642.460
393.495;  -11.621;   -9.285;  595.414
394.089;   -8.068;   -5.895;  760.452
394.682;   -9.728;   -4.295;  697.188
395.275;  -10.730;   -9.875;  719.927
395.869;  -11.028;   -8.485;  667.314
396.462;   -9.132;   -7.455;  616.609
397.056;   -6.409;   -5.424;  776.621
397.649;  -10.592;   -6.605;  731.575
398.242;   -8.552;   -8.224;  712.645
398.836;   -6.707;   -7.474;  766.408
399.429;   -8.469;   -7.094;  631.041
400.022;  -12.570;   -9.475;  665.902
400.615;   -9.911;   -7.145;  805.609
401.208;   -6.289;   -7.174;  691.451
401.802;   -9.368;   -5.515;  699.329
402.395;  -11.388;   -9.875;  683.502
402.988;  -12.816;   -8.845;  696.627
403.581;   -7.753;   -8.874;  646.878
404.174;   -6.115;   -5.324;  686.568
404.767;   -9.894;   -9.575;  638.583
405.360;  -12.284;  -10.965;  621.445
405.953;   -5.842;   -8.764;  759.034
406.545;   -5.361;   -7.514;  725.342
407.138;  -10.832;  -10.025;  618.350
407.731;   -8.523;  -10.034;  613.303
408.324;   -4.266;   -9.374;  660.554
408.917;   -4.900;   -6.534;  681.864
409.509;   -7.131;   -8.004;  740.396
410.102;   -9.576;   -9.875;  643.948
410.695;   -3.168;   -8.604;  665.758
411.287;   -4.030;   -6.794;  599.821
411.880;   -6.400;   -9.334;  585.421
412.472;   -8.541;  -10.254;  613.092
413.065;   -4.686;   -6.714;  629.408
413.657;   -3.238;   -7.234;  576.678
414.250;   -3.824;  -10.544;  646.681
414.842;   -5.069;   -9.744;  676.353
415.434;   -2.345;   -6.994;  570.463
416.027;    0.840;   -5.893;  652.196
416.619;   -1.221;   -7.264;  713.400
417.211;   -1.761;  -10.374;  599.352
417.804;    2.629;   -7.993;  628.499
418.396;   -1.718;   -7.234;  607.643
418.988;   -0.230;   -9.443;  659.238
419.580;   -2.974;  -10.724;  568.276
420.172;   -0.110;  -10.323;  536.196
420.764;    3.736;   -8.793;  672.482
421.356;    2.245;  -11.143;  636.898
421.948;    0.662;   -8.293;  677.661
422.540;    6.894;   -7.893;  680.027
423.132;    6.383;   -7.082;  600.641
423.724;    2.043;   -8.653;  561.267
424.316;    4.770;  -10.213;  621.345
424.908;    8.926;   -9.762;  591.517
425.500;    9.248;   -5.572;  647.978
426.092;    8.958;   -8.422;  648.268
426.683;    7.590;   -9.283;  684.836
427.275;   11.583;   -7.852;  641.471
427.867;   13.246;   -5.272;  668.948
428.458;   12.926;   -7.682;  732.344
429.050;   11.085;  -10.612;  680.749
429.642;   14.670;   -9.882;  743.124
430.233;   15.108;   -6.962;  569.356
430.825;   14.907;   -6.842;  724.809
431.416;   12.949;   -9.672;  698.241
432.008;   17.940;   -6.552;  651.723
432.599;   18.266;   -6.891;  656.073
433.190;   13.614;  -10.912;  637.670
433.782;   13.584;  -11.172;  590.395
434.373;   21.559;   -6.061;  884.765
434.964;   20.570;   -8.251;  602.920
435.556;   17.413;   -9.722;  634.537
436.147;   20.349;   -9.082;  758.490
436.738;   21.410;   -8.041;  701.099
437.329;   26.136;   -7.341;  721.723
437.920;   18.723;   -8.162;  666.688
438.511;   18.093;  -11.802;  564.526
439.103;   26.290;  -10.191;  623.998
439.694;   27.309;   -7.601;  681.583
440.285;   27.138;   -8.541;  764.432
440.876;   26.406;   -9.751;  845.738
441.466;   26.671;   -9.401;  575.162
442.057;   30.942;   -7.760;  665.814
442.648;   29.558;   -9.971;  746.255
443.239;   28.220;  -11.001;  620.477
443.830;   34.717;   -7.990;  704.958
444.421;   35.520;   -7.910;  655.474
445.011;   31.054;   -8.131;  693.619
445.602;   31.245;   -7.111;  743.126
446.193;   34.018;  -10.920;  488.117
446.783;   37.747;   -6.500;  640.397
447.374;   32.599;   -8.671;  692.759
447.964;   33.250;  -10.781;  713.770
448.555;   42.702;   -9.650;  822.742
449.145;   38.518;   -8.660;  662.853
449.736;   38.622;   -8.990;  803.179
450.326;   39.712;   -9.500;  713.626
450.917;   45.409;   -8.680;  675.324
451.507;   44.244;   -7.520;  600.661
452.097;   44.678;   -8.590;  746.267
452.688;   45.872;  -11.340;  742.160
453.278;   45.722;  -10.100;  566.840
453.868;   50.579;   -6.019;  793.550
454.458;   47.702;   -9.440;  651.141
455.048;   47.904;  -10.560;  711.783
455.639;   50.387;  -11.799;  567.096
456.229;   53.746;   -6.899;  710.694
456.819;   54.961;   -7.389;  751.158
457.409;   55.451;  -11.119;  773.993
457.999;   59.173;   -9.289;  737.505
458.589;   58.650;   -6.139;  686.606
459.179;   58.273;   -8.729;  717.658
459.769;   56.336;   -9.789;  627.099
460.358;   62.140;  -10.259;  797.262
460.948;   61.848;   -7.299;  689.503
461.538;   63.162;  -10.289;  660.677
462.128;   60.883;  -11.269;  664.934
462.717;   67.958;   -9.368;  710.326
463.307;   71.201;   -7.908;  705.846
463.897;   66.633;   -9.599;  656.942
464.486;   66.313;   -9.769;  837.128
465.076;   71.682;   -8.048;  733.776
465.666;   73.816;   -9.358;  652.900
466.255;   71.225;   -7.919;  785.651
466.845;   70.383;  -11.689;  666.749
467.434;   75.438;   -7.818;  725.873
468.023;   75.472;   -7.678;  658.357
468.613;   71.758;  -10.939;  713.946
469.202;   76.522;  -10.118;  646.507
469.791;   82.405;   -9.108;  737.811
470.381;   84.326;   -6.058;  742.813
470.970;   82.601;  -10.428;  711.099
471.559;   83.389;  -10.268;  733.291
472.148;   87.753;   -8.448;  675.737
472.738;   90.189;   -6.917;  765.466
473.327;   88.223;  -11.978;  637.529
473.916;   87.125;  -11.888;  737.446
474.505;   93.576;   -9.437;  751.703
475.094;   95.270;   -6.747;  806.570
475.683;   94.303;   -9.367;  797.699
476.272;   96.211;  -12.637;  730.632
476.861;   99.369;  -10.027;  706.754
477.449;  105.110;   -8.716;  728.487
478.038;   99.628;   -9.577;  692.513
478.627;  101.006;   -9.718;  714.852
479.216;  108.353;   -8.947;  769.441
479.805;  111.551;   -6.256;  783.375
480.393;  110.501;   -7.937; 1008.945
480.982;  110.554;   -7.717;  874.501
481.571;  117.384;   -9.266;  858.333
482.159;  118.152;   -7.636;  705.386
482.748;  117.225;   -9.667;  821.385
483.336;  122.023;  -10.376;  858.209
483.925;  123.369;   -7.147;  774.373
484.513;  130.610;   -7.996;  758.962
485.102;  126.725;  -10.027;  810.965
485.690;  135.511;  -10.446; 1011.050
486.278;  138.412;   -8.446;  979.329
486.867;  138.510;   -6.356;  809.662
487.455;  140.292;   -9.136;  898.229
488.043;  142.203;  -10.646;  748.361
488.631;  152.842;   -7.456; 1005.079
489.220;  156.406;   -6.636;  908.626
489.808;  155.919;  -11.036;  741.415
490.396;  164.693;  -10.246;  914.645
490.984;  172.956;   -8.556;  830.161
491.572;  184.670;   -5.886;  940.315
492.160;  191.320;   -9.486;  919.081
492.748;  205.413;  -10.976;  884.341
493.336;  231.007;   -8.776; 1019.693
493.924;  260.813;   -5.465;  958.077
494.512;  294.270;   -9.986; 1066.638
495.100;  344.801;  -10.636; 1103.280
495.687;  412.053;  -10.885; 1206.373
496.275;  475.301;   -8.126; 1150.796
496.863;  546.137;  -10.586; 1281.171
497.451;  665.897;  -11.926; 1386.805
498.038;  780.494;  -10.885; 1556.729
498.626;  892.910;   -6.315; 1741.407
499.214; 1067.067;   -7.326; 2016.609
499.801; 1280.092;  -11.906; 2220.633
500.389; 1524.405;  -10.466; 2312.494
500.976; 1824.224;   -5.236; 2744.849
501.564; 2293.716;   -8.936; 3148.565
502.151; 2812.810;  -13.176; 3515.999
502.738; 3312.116;  -10.646; 3971.274
503.326; 3727.677;   -9.525; 4403.796
503.913; 4119.945;  -10.856; 5161.749
504.500; 4658.197;  -11.586; 5986.420
505.088; 5109.974;  -10.336; 6381.201
505.675; 5535.910;   -6.355; 6925.547
506.262; 6019.192;   -9.046; 7619.060
506.849; 6417.871;  -10.416; 8733.969
507.436; 6896.465;  -10.305; 9790.121
508.023; 7416.424;   -5.496; 9985.472
508.610; 8312.251;   -7.856;10434.618
509.197;10043.830;  -10.097;11198.435
509.784;11686.789;  -10.886;12391.194
510.371;12754.891;   -9.315;13603.713
510.958;13558.228;   -9.936;14426.586
511.545;14056.029;   -9.326;15243.775
512.132;14979.605;  -10.075;15945.876
512.719;15532.416;   -7.796;16340.369
513.305;16783.516;  -10.606;18011.766
513.892;18159.174;  -11.486;19754.971
514.479;19999.658;   -9.126;20967.805
515.066;21291.814;   -6.026;22299.793
515.652;21616.795;   -8.466;22908.660
516.239;23069.322;  -10.886;23798.875
516.825;25286.285;  -11.496;25567.275
517.412;26671.328;   -5.796;28154.959
517.998;28285.512;  -10.506;28344.111
518.585;28602.480;  -10.076;27134.219
519.171;27668.096;   -8.315;27268.576
519.758;27421.313;   -8.596;28964.129
520.344;28287.020;   -8.466;30664.494
520.930;31616.346;  -11.006;32550.605
521.516;32174.602;  -10.495;35422.895
522.103;31644.670;   -5.526;38280.004
522.689;32483.834;   -8.746;37835.117
523.275;34801.320;  -11.376;37288.613
523.861;37016.684;  -11.156;37281.395
524.447;39782.371;   -8.135;37846.949
525.033;40583.504;   -7.896;38321.949
525.619;39938.063;  -12.476;38579.285
526.205;40191.852;   -9.516;40622.875
526.791;39475.008;   -6.926;42258.836
527.377;41612.563;   -8.346;42966.902
527.963;43660.605;   -8.717;42018.949
528.549;42016.266;  -11.016;42476.828
529.135;41723.441;   -8.536;41854.852
529.721;40874.980;   -9.666;41237.711
530.306;39053.152;  -10.066;41259.445
530.892;39519.395;  -11.356;41506.047
531.478;40093.563;   -6.596;43559.613
532.063;40667.016;   -8.836;47695.563
532.649;43951.391;  -10.047;50808.324
533.235;46309.652;   -9.746;51787.500
533.820;45486.875;   -6.566;52145.035
534.406;44426.125;  -10.817;51133.488
534.991;47229.289;   -9.416;49996.805
535.576;48286.813;   -9.036;48882.852
536.162;48969.582;   -6.156;46942.285
536.747;49276.223;  -11.607;45711.746
537.333;48805.086;  -11.787;48510.180
537.918;47889.992;  -12.437;50439.891
538.503;47787.375;   -7.196;50863.711
539.088;46479.996;  -10.556;50906.922
539.673;46604.836;   -8.767;52621.965
540.259;48051.621;  -10.026;52368.094
540.844;49781.207;   -7.416;50879.109
541.429;48311.227;   -9.467;52077.777
542.014;48548.250;   -9.527;52716.695
542.599;51290.688;   -9.946;52363.281
543.184;53246.141;   -7.927;53187.137
543.769;51797.910;   -9.297;54697.605
544.354;48216.941;  -10.127;53913.914
544.938;45570.340;   -9.267;49680.164
545.523;47700.402;   -6.506;47386.277
546.108;52914.152;   -9.787;49151.949
546.693;53428.750;  -11.587;51384.637
547.278;53526.961;  -10.986;51853.254
547.862;49385.160;   -8.206;51173.750
548.447;45877.555;  -10.067;51691.395
549.031;48233.309;   -9.637;52456.703
549.616;50669.422;   -9.926;52714.516
550.201;48389.406;   -6.347;52414.598
550.785;45665.387;   -7.917;52355.059
551.370;43764.645;  -10.867;54589.453
551.954;45222.516;   -9.047;58267.348
552.538;48348.512;   -7.827;59062.176
553.123;48102.855;  -10.287;58115.285
553.707;44173.195;  -12.178;56556.285
554.291;45734.039;   -8.717;56201.668
554.876;48425.379;   -7.457;55335.762
555.460;49966.629;  -10.387;54155.703
556.044;50603.750;   -9.618;53721.484
556.628;50375.449;  -11.567;53731.016
557.212;49517.656;   -8.097;54312.531
557.796;49277.285;  -11.077;53797.773
558.380;47154.359;  -11.108;56145.984
558.964;44703.625;   -9.057;57277.930
559.548;44511.582;   -6.977;56459.641
560.132;44751.457;  -11.457;54434.543
560.716;42633.984;  -11.378;54800.617
561.300;43554.215;   -9.577;57606.945
561.884;46201.496;   -7.127;58972.445
562.467;47169.313;   -7.118;57327.570
563.051;47645.320;  -13.358;54962.434
563.635;45700.219;  -10.178;52594.473
564.219;45522.746;   -7.837;50610.410
564.802;44993.422;  -11.398;49551.180
565.386;46382.949;  -12.788;48370.953
565.969;46138.867;   -9.077;48178.871
566.553;45346.336;   -6.207;49957.305
567.136;43122.043;   -8.568;50369.594
567.720;42407.684;  -11.868;49492.004
568.303;43363.227;   -8.268;50616.352
568.887;42260.852;   -8.698;50727.148
569.470;41047.676;   -6.808;51698.379
570.053;39610.855;  -13.188;52122.078
570.637;37608.359;  -12.037;52536.438
571.220;36995.039;   -8.577;51186.098
571.803;38453.297;   -8.498;51032.762
572.386;40369.141;  -10.498;49609.887
572.969;41463.082;   -9.388;48285.926
573.552;37593.965;   -8.338;47624.285
574.135;36371.121;   -8.518;45498.641
574.718;34878.105;  -13.628;41970.434
575.301;33473.398;  -10.893;41447.137
575.884;32068.691;   -8.158;40923.836
576.467;35913.535;  -10.328;45267.723
577.050;35177.180;  -13.058;48175.543
577.633;33775.387;   -9.458;47729.328
578.216;34509.855;   -8.928;47579.793
578.799;35543.066;   -9.358;47820.996
579.381;35650.520;  -11.388;48115.551
579.964;33743.148;  -11.718;47333.766
580.547;34384.316;   -8.588;46668.969
581.129;35965.555;   -8.859;44466.141
581.712;35227.172;  -10.729;44164.922
582.294;36641.254;  -11.118;46477.855
582.877;34627.066;   -5.218;48244.254
583.459;34298.320;   -8.679;47437.895
584.042;35495.137;  -10.709;46943.219
584.624;38685.441;  -11.669;46792.227
585.206;38579.512;   -8.218;46557.250
585.789;36280.000;  -10.569;45793.773
586.371;35413.551;  -11.859;43836.391
586.953;34170.930;  -10.719;42972.492
587.536;35377.008;   -7.198;42487.211
588.118;37285.117;   -8.720;42086.414
588.700;36815.953;  -10.439;43389.930
589.282;36019.203;   -9.198;43646.039
589.864;35613.813;   -9.199;43438.109
590.446;33481.070;  -11.319;43151.926
591.028;32302.254;  -11.159;42781.867
591.610;31644.752;  -11.779;42839.098
592.192;28858.807;   -7.668;42820.402
592.774;30011.773;  -11.949;40724.277
593.356;31571.883;  -12.129;39874.789
593.937;31427.211;  -10.669;39980.648
594.519;32657.629;   -6.509;42069.633
595.101;34602.359;  -10.849;42976.031
