source_right
Integration time [ms]: 300.000
Averaging Nr. [scans]: 30
Smoothing Nr. [pixels]: 0
Data measured with spectrometer [name]: 7414430SP
Wave   ;Sample   ;Dark     ;Reference
[nm]   ;[counts] ;[counts] ;[counts] 

288.544;  500.323;  409.495;    6.613
289.143;  430.857;  334.741;   14.216
289.742;  540.846;  438.471;   11.816
290.341;  508.995;  418.127;   -4.936
290.940;  467.513;  374.571;    0.852
291.538;  569.460;  486.444;    1.792
292.137;  517.639;  414.837;    6.262
292.736;  643.862;  548.261;    8.164
293.335;  470.801;  380.904;   -6.418
293.934;  502.294;  413.615;   -2.904
294.532;  686.497;  601.463;   -5.162
295.131;  541.123;  463.325;  -10.283
295.730;  526.515;  447.004;  -16.141
296.328;  506.615;  435.754;  -14.740
296.927;  502.217;  428.130;   -8.768
297.525;  507.388;  423.459;  -15.255
298.124;  408.940;  340.248;  -22.063
298.722;  494.530;  419.149;  -14.796
299.321;  454.751;  377.482;  -10.466
299.919;  481.924;  410.080;  -10.979
300.518;  438.547;  368.337;  -12.077
301.116;  443.581;  370.383;  -13.509
301.715;  469.993;  390.100;  -11.939
302.313;  446.320;  382.345;  -15.424
302.911;  469.561;  409.207;  -19.833
303.509;  615.650;  543.847;   -3.567
304.108;  492.822;  423.019;   -9.553
304.706;  524.923;  452.293;   -8.582
305.304;  523.423;  460.774;  -12.348
305.902;  512.291;  441.800;  -14.411
306.500;  475.663;  404.342;   -7.194
307.098;  484.543;  424.328;   -9.322
307.696;  511.575;  457.530;  -19.192
308.294;  476.394;  419.528;   -9.736
308.892;  497.634;  441.888;  -15.482
309.490;  453.903;  397.807;  -14.107
310.088;  517.374;  463.266;  -15.862
310.686;  539.279;  480.333;  -10.781
311.284;  499.902;  445.100;  -14.878
311.882;  475.990;  422.933;   -9.948
312.480;  450.760;  400.225;  -15.503
313.078;  536.451;  475.435;  -17.262
313.675;  445.730;  394.542;   -3.694
314.273;  522.768;  482.288;  -18.246
314.871;  373.064;  328.213;  -15.190
315.468;  421.461;  369.507;  -12.633
316.066;  453.906;  402.504;   -5.765
316.664;  428.655;  380.819;  -14.317
317.261;  604.991;  553.581;   -8.677
317.859;  515.860;  465.282;  -11.804
318.456;  551.959;  506.913;   -3.107
319.054;  509.585;  472.927;   -3.062
319.651;  497.359;  461.622;   -6.706
320.249;  531.759;  496.555;   -5.206
320.846;  463.568;  426.783;   -4.679
321.443;  551.254;  514.791;   -7.920
322.041;  539.982;  499.737;  -14.105
322.638;  460.618;  424.051;   -6.263
323.235;  432.420;  394.945;   -7.424
323.833;  485.717;  451.307;  -14.765
324.430;  393.389;  353.447;  -10.550
325.027;  585.867;  544.441;   -9.951
325.624;  416.491;  367.891;   -3.712
326.221;  443.428;  398.524;   -9.368
326.818;  540.138;  500.113;   -5.637
327.415;  483.051;  435.885;   -6.699
328.012;  446.824;  386.964;   -5.713
328.609;  474.678;  424.864;   -9.983
329.206;  504.577;  454.999;   -7.154
329.803;  473.790;  417.719;   -1.682
330.400;  455.637;  389.434;   -2.741
330.997;  531.371;  468.961;   -4.339
331.594;  515.946;  450.395;  -10.278
332.191;  464.339;  403.452;   -6.967
332.787;  547.979;  483.017;   -0.480
333.384;  481.661;  428.015;  -10.333
333.981;  516.339;  466.840;  -19.900
334.578;  443.856;  383.913;  -19.816
335.174;  457.646;  399.076;  -15.844
335.771;  530.671;  482.567;  -12.670
336.367;  448.674;  393.669;  -21.124
336.964;  506.307;  453.616;  -18.226
337.561;  468.946;  406.390;  -13.311
338.157;  586.847;  537.645;  -19.006
338.754;  511.176;  465.774;  -19.418
339.350;  452.260;  404.223;  -29.433
339.946;  491.675;  442.621;  -16.622
340.543;  541.000;  495.432;  -16.744
341.139;  448.234;  410.435;  -21.841
341.735;  495.766;  452.920;  -25.012
342.332;  440.341;  394.848;  -19.156
342.928;  500.812;  465.203;  -20.443
343.524;  487.105;  446.876;  -14.397
344.120;  472.219;  432.262;  -20.654
344.716;  457.316;  413.833;   -5.730
345.313;  511.027;  480.927;  -10.929
345.909;  388.312;  342.011;  -19.843
346.505;  471.367;  436.364;  -19.645
347.101;  532.509;  490.958;   -9.618
347.697;  510.891;  467.365;  -10.305
348.293;  389.275;  344.251;  -23.189
348.889;  481.920;  438.836;  -18.418
349.485;  436.834;  384.594;  -10.476
350.081;  506.998;  454.803;  -17.320
350.676;  445.019;  395.638;  -21.088
351.272;  526.042;  474.538;  -12.821
351.868;  498.527;  454.235;  -13.165
352.464;  464.805;  419.565;  -12.464
353.059;  419.322;  371.751;  -22.547
353.655;  516.434;  462.550;   -9.379
354.251;  493.227;  445.226;   -8.266
354.846;  487.036;  434.234;  -17.705
355.442;  484.065;  439.506;   -9.317
356.038;  485.388;  437.316;  -11.049
356.633;  478.736;  423.492;  -10.006
357.229;  475.209;  425.098;  -13.120
357.824;  452.100;  410.071;  -15.647
358.420;  444.081;  388.980;  -19.204
359.015;  452.561;  398.905;  -12.263
359.610;  505.931;  455.161;  -16.421
360.206;  381.357;  339.469;  -20.074
360.801;  410.623;  368.207;  -13.277
361.396;  484.508;  425.487;   -5.822
361.992;  426.266;  388.404;  -11.247
362.587;  437.503;  385.521;  -21.502
363.182;  452.373;  399.301;   -7.461
363.777;  485.020;  436.726;   -8.719
364.372;  489.574;  439.716;  -14.590
364.967;  437.767;  397.056;  -15.145
365.563;  544.607;  487.956;   -7.192
366.158;  450.639;  399.566;   -5.662
366.753;  430.012;  374.929;   -8.378
367.348;  496.252;  442.336;  -14.990
367.942;  457.925;  403.765;   -6.005
368.537;  498.359;  450.125;  -11.504
369.132;  463.612;  411.847;  -10.576
369.727;  415.835;  370.647;  -12.573
370.322;  377.806;  329.318;  -11.560
370.917;  466.386;  422.304;  -10.388
371.511;  579.006;  526.876;   -9.161
372.106;  519.500;  477.156;  -10.245
372.701;  384.707;  333.029;  -10.158
373.296;  580.976;  531.224;   -4.719
373.890;  421.137;  378.521;  -11.802
374.485;  460.059;  420.279;  -13.500
375.079;  495.612;  450.906;   -6.276
375.674;  552.544;  500.215;   -0.447
376.268;  457.354;  416.988;   -6.916
376.863;  377.354;  339.418;  -14.483
377.457;  442.203;  401.520;   -6.903
378.052;  515.278;  466.935;   -9.844
378.646;  503.259;  457.469;  -12.601
379.240;  485.232;  443.092;  -14.715
379.835;  430.594;  383.209;  -12.331
380.429;  363.824;  326.727;   -9.074
381.023;  529.405;  486.447;   -1.729
381.617;  454.733;  412.160;  -13.714
382.212;  467.406;  421.010;   -7.060
382.806;  511.336;  474.220;   -2.303
383.400;  449.777;  415.320;   -0.815
383.994;  446.150;  409.675;   -4.429
384.588;  474.128;  433.890;   -6.261
385.182;  495.240;  451.715;    0.008
385.776;  485.655;  444.976;   -3.247
386.370;  460.727;  425.010;   -1.030
386.964;  470.067;  428.755;   -1.346
387.558;  401.642;  358.906;   -2.020
388.152;  460.022;  426.062;   -5.345
388.745;  558.635;  525.538;   -2.774
389.339;  512.385;  484.952;    3.510
389.933;  466.153;  435.917;    5.280
390.527;  594.441;  556.134;    2.610
391.120;  397.977;  367.345;   -7.914
391.714;  486.448;  450.473;   -1.903
392.308;  536.645;  501.397;    6.023
392.901;  433.759;  405.276;   -4.103
393.495;  397.754;  373.438;    3.284
394.089;  524.578;  492.192;    8.655
394.682;  481.197;  449.791;    2.312
395.275;  489.914;  466.091;   -7.402
395.869;  458.035;  425.698;   -1.072
396.462;  415.100;  391.306;    6.454
397.056;  533.391;  500.706;    8.494
397.649;  505.070;  479.805;    1.599
398.242;  489.511;  462.999;    3.153
398.836;  532.980;  498.021;   11.395
399.429;  430.736;  400.852;   14.695
400.022;  447.113;  432.501;    3.627
400.615;  559.199;  538.132;    8.383
401.208;  470.347;  446.863;   13.295
401.802;  478.119;  454.579;    6.211
402.395;  471.780;  447.734;    7.227
402.988;  468.070;  451.215;    2.700
403.581;  443.068;  413.103;   11.225
404.174;  476.356;  453.490;   18.922
404.767;  434.305;  415.270;   14.169
405.360;  417.559;  400.695;    8.999
405.953;  520.161;  490.897;   13.138
406.545;  498.694;  476.388;   13.937
407.138;  413.749;  394.439;   10.869
407.731;  420.160;  400.391;   12.768
408.324;  452.678;  427.127;   22.921
408.917;  466.540;  443.448;   15.308
409.509;  501.251;  493.496;   12.239
410.102;  434.229;  419.217;   13.741
410.695;  452.810;  431.403;   20.249
411.287;  401.135;  386.549;   21.793
411.880;  388.748;  381.535;   22.965
412.472;  406.620;  402.894;   15.082
413.065;  424.434;  413.469;   23.423
413.657;  386.030;  371.883;   21.077
414.250;  430.643;  420.377;   12.349
414.842;  450.067;  441.751;   20.423
415.434;  378.807;  370.604;   19.906
416.027;  432.585;  421.460;   26.574
416.619;  483.562;  469.417;   15.705
417.211;  394.102;  385.081;   17.791
417.804;  416.386;  402.209;   30.244
418.396;  408.941;  399.311;   24.177
418.988;  435.573;  430.319;   24.904
419.580;  372.658;  367.521;   20.692
420.172;  354.374;  353.384;   22.275
420.764;  450.185;  439.276;   26.773
421.356;  425.349;  416.954;   25.731
421.948;  453.785;  451.479;   24.876
422.540;  451.975;  448.554;   30.042
423.132;  395.414;  389.159;   32.728
423.724;  360.822;  364.076;   21.317
424.316;  408.647;  401.037;   29.359
424.908;  389.293;  384.026;   28.798
425.500;  429.776;  420.493;   30.512
426.092;  425.785;  415.597;   26.741
426.683;  462.415;  455.610;   27.029
427.275;  426.942;  418.767;   32.611
427.867;  445.015;  436.346;   33.796
428.458;  486.568;  475.212;   34.453
429.050;  452.401;  448.830;   34.255
429.642;  494.966;  490.604;   39.082
430.233;  356.829;  356.763;   41.138
430.825;  484.133;  482.287;   31.581
431.416;  460.657;  457.128;   35.755
432.008;  426.427;  411.713;   40.566
432.599;  425.657;  421.497;   46.322
433.190;  418.638;  410.745;   46.897
433.782;  382.350;  379.813;   41.069
434.373;  590.521;  589.623;   48.778
434.964;  386.776;  379.395;   50.078
435.556;  412.944;  405.856;   52.381
436.147;  496.689;  493.316;   38.251
436.738;  453.551;  455.759;   47.237
437.329;  471.074;  462.759;   61.304
437.920;  428.642;  429.359;   48.611
438.511;  352.198;  358.172;   44.910
439.103;  394.707;  394.743;   62.404
439.694;  440.875;  435.667;   63.075
440.285;  500.795;  497.775;   61.033
440.876;  552.678;  554.861;   57.249
441.466;  357.297;  355.217;   61.306
442.057;  422.730;  421.853;   65.773
442.648;  482.576;  479.009;   65.676
443.239;  387.849;  391.774;   55.963
443.830;  457.305;  447.867;   69.631
444.421;  417.054;  409.282;   69.943
445.011;  437.103;  440.130;   72.791
445.602;  480.411;  475.218;   68.848
446.193;  292.110;  289.880;   80.044
446.783;  397.628;  390.851;   82.599
447.374;  439.057;  440.444;   77.419
447.964;  454.196;  446.408;   72.605
448.555;  534.242;  527.827;   82.041
449.145;  415.649;  411.627;   76.230
449.736;  517.754;  512.600;   75.545
450.326;  451.966;  451.236;   67.945
450.917;  423.661;  415.408;   77.598
451.507;  365.793;  362.493;   68.027
452.097;  473.597;  473.860;   67.771
452.688;  463.290;  462.279;   62.884
453.278;  341.244;  338.493;   65.512
453.868;  512.583;  503.912;   71.796
454.458;  396.425;  394.953;   60.956
455.048;  443.103;  437.873;   62.356
455.639;  337.912;  334.515;   58.782
456.229;  439.921;  440.675;   65.209
456.819;  471.118;  466.677;   61.466
457.409;  489.251;  481.128;   59.967
457.999;  459.171;  449.881;   58.093
458.589;  416.286;  417.908;   59.536
459.179;  447.271;  437.091;   55.994
459.769;  375.693;  372.249;   43.624
460.358;  494.011;  488.228;   46.978
460.948;  418.292;  408.154;   49.821
461.538;  395.766;  391.000;   54.678
462.128;  402.854;  396.875;   49.309
462.717;  433.932;  423.321;   52.774
463.307;  431.708;  423.256;   48.101
463.897;  391.231;  384.542;   45.606
464.486;  519.554;  524.293;   45.010
465.076;  445.980;  441.649;   45.519
465.666;  389.649;  374.268;   50.058
466.255;  484.228;  474.393;   44.463
466.845;  398.142;  387.211;   41.206
467.434;  440.601;  424.688;   44.847
468.023;  393.972;  377.718;   46.760
468.613;  424.852;  422.941;   39.736
469.202;  376.327;  369.407;   46.461
469.791;  443.322;  429.932;   47.944
470.381;  455.373;  434.973;   47.529
470.970;  421.998;  406.861;   43.773
471.559;  442.145;  428.056;   41.646
472.148;  391.790;  379.588;   37.914
472.738;  457.820;  441.906;   48.071
473.327;  358.365;  347.159;   47.871
473.916;  434.568;  427.635;   37.716
474.505;  448.860;  434.219;   40.256
475.094;  486.897;  471.223;   43.269
475.683;  471.763;  454.217;   36.499
476.272;  426.499;  416.541;   44.542
476.861;  409.229;  387.399;   42.297
477.449;  424.445;  400.102;   46.878
478.038;  395.815;  375.742;   35.156
478.627;  404.846;  393.394;   42.514
479.216;  444.554;  421.384;   43.937
479.805;  451.117;  429.150;   51.393
480.393;  610.821;  593.969;   53.239
480.982;  519.148;  503.699;   38.955
481.571;  502.020;  481.123;   45.436
482.159;  388.244;  365.728;   51.007
482.748;  474.329;  456.530;   49.695
483.336;  496.068;  472.134;   48.280
483.925;  442.474;  414.107;   47.166
484.513;  420.599;  396.464;   55.404
485.102;  453.110;  427.957;   54.238
485.690;  588.869;  564.805;   55.748
486.278;  570.753;  545.971;   55.934
486.867;  438.155;  418.355;   57.106
487.455;  511.690;  484.255;   56.979
488.043;  386.796;  364.352;   57.564
488.631;  572.753;  544.670;   57.432
489.220;  500.035;  467.920;   63.646
489.808;  370.258;  347.078;   65.449
490.396;  493.023;  466.870;   61.977
490.984;  423.375;  392.002;   68.834
491.572;  496.789;  463.968;   70.775
492.160;  465.663;  446.152;   67.564
492.748;  429.544;  405.612;   66.808
493.336;  514.524;  478.001;   79.747
493.924;  442.049;  404.945;   88.688
494.512;  492.093;  467.227;   84.120
495.100;  483.880;  463.219;   86.250
495.687;  515.033;  481.836;  103.074
496.275;  423.392;  384.150;  108.717
496.863;  430.575;  404.803;  107.035
497.451;  424.995;  398.294;  117.993
498.038;  454.792;  423.756;  120.116
498.626;  446.139;  410.875;  143.059
499.214;  465.553;  439.271;  153.434
499.801;  452.693;  425.344;  175.121
500.389;  382.714;  350.829;  185.617
500.976;  482.616;  442.021;  215.789
501.564;  456.048;  426.642;  240.321
502.151;  329.199;  296.059;  267.007
502.738;  436.206;  401.601;  317.961
503.326;  449.103;  407.992;  361.216
503.913;  462.341;  432.559;  401.433
504.500;  477.172;  443.554;  446.492
505.088;  405.807;  373.728;  512.063
505.675;  446.893;  409.822;  586.387
506.262;  443.115;  406.392;  671.021
506.849;  450.307;  419.819;  759.062
507.436;  511.360;  477.106;  849.788
508.023;  454.916;  416.429;  944.288
508.610;  503.249;  461.389; 1020.690
509.197;  479.659;  446.115; 1089.052
509.784;  452.767;  421.247; 1133.776
510.371;  379.409;  344.805; 1165.501
510.958;  465.498;  428.742; 1251.735
511.545;  528.180;  495.766; 1350.248
512.132;  454.468;  414.552; 1525.945
512.719;  409.175;  367.793; 1834.933
513.305;  414.802;  376.622; 1965.349
513.892;  523.685;  490.642; 1963.265
514.479;  469.068;  430.353; 2046.446
515.066;  513.743;  478.374; 2252.803
515.652;  473.202;  427.304; 2567.247
516.239;  498.048;  456.707; 2636.919
516.825;  395.421;  358.595; 2482.304
517.412;  593.408;  545.991; 2427.031
517.998;  447.029;  407.151; 2540.463
518.585;  440.733;  402.625; 2609.007
519.171;  475.182;  432.545; 2842.088
519.758;  407.698;  351.321; 3090.703
520.344;  508.234;  463.514; 3176.076
520.930;  413.087;  374.466; 3295.037
521.516;  494.550;  447.977; 3500.959
522.103;  538.699;  492.264; 3736.704
522.689;  443.282;  400.951; 3971.022
523.275;  516.423;  480.038; 4213.778
523.861;  462.184;  411.788; 4190.361
524.447;  523.754;  469.742; 4070.602
525.033;  519.328;  484.410; 4088.892
525.619;  423.592;  379.280; 4416.851
526.205;  408.075;  361.911; 4836.835
526.791;  455.643;  401.416; 4885.903
527.377;  437.144;  391.487; 4544.907
527.963;  469.795;  431.280; 4321.995
528.549;  487.123;  437.447; 4473.979
529.135;  433.762;  382.725; 4788.663
529.721;  471.178;  420.218; 4888.577
530.306;  631.390;  580.947; 4775.779
530.892;  450.532;  395.249; 4793.906
531.478;  443.402;  389.046; 4956.948
532.063;  419.164;  368.426; 5136.936
532.649;  575.863;  522.196; 5336.867
533.235;  430.983;  377.000; 5748.092
533.820;  542.111;  482.790; 6456.875
534.406;  464.275;  409.399; 6590.167
534.991;  432.893;  377.820; 6179.622
535.576;  464.328;  411.785; 6098.691
536.162;  638.553;  584.963; 6441.234
536.747;  406.994;  356.157; 6816.224
537.333;  431.114;  376.896; 6889.752
537.918;  466.479;  412.087; 7154.280
538.503;  453.202;  388.705; 7150.848
539.088;  496.689;  436.665; 7253.308
539.673;  467.601;  407.318; 7625.180
540.259;  443.472;  383.364; 8226.793
540.844;  395.594;  336.610; 8745.092
541.429;  572.114;  519.480; 8762.553
542.014;  407.407;  350.519; 8871.497
542.599;  497.177;  435.412; 8886.008
543.184;  418.632;  356.454; 9079.139
543.769;  444.424;  383.817; 9076.182
544.354;  463.268;  395.094; 8354.081
544.938;  499.133;  437.052; 8236.809
545.523;  580.901;  512.791; 8222.179
546.108;  482.102;  415.345; 8114.082
546.693;  479.567;  413.231; 8535.912
547.278;  492.449;  413.668; 9238.322
547.862;  490.566;  408.157; 9034.405
548.447;  544.045;  462.999; 7795.011
549.031;  481.274;  404.079; 7485.099
549.616;  514.477;  435.463; 7626.308
550.201;  478.855;  393.375; 7627.909
550.785;  537.761;  449.341; 7859.125
551.370;  444.093;  359.017; 7990.654
551.954;  554.353;  467.270; 8196.468
552.538;  556.640;  457.008; 7959.495
553.123;  483.350;  384.555; 7964.826
553.707;  501.482;  400.284; 8515.957
554.291;  597.138;  489.018; 8724.024
554.876;  569.356;  460.260; 8524.211
555.460;  505.526;  384.052; 8704.456
556.044;  501.709;  387.855; 9141.473
556.628;  545.974;  417.244; 9250.197
557.212;  628.198;  479.461; 9444.237
557.796;  555.258;  405.744; 9379.783
558.380;  589.327;  434.930; 9353.658
558.964;  587.922;  421.226; 9210.310
559.548;  531.948;  353.821; 8475.153
560.132;  579.358;  397.378; 7954.084
560.716;  558.984;  363.734; 7489.529
561.300;  581.348;  357.771; 7211.952
561.884;  676.678;  449.167; 7141.313
562.467;  684.925;  445.272; 7155.386
563.051;  676.238;  417.174; 7323.158
563.635;  686.012;  401.327; 7709.114
564.219;  730.859;  414.401; 7678.855
564.802;  785.447;  443.494; 7376.187
565.386;  793.176;  421.879; 7054.372
565.969;  897.184;  490.012; 6589.196
566.553;  986.520;  538.506; 6279.371
567.136;  962.617;  479.126; 5967.930
567.720;  942.253;  420.827; 5660.703
568.303; 1004.290;  435.839; 5648.615
568.887; 1050.599;  420.625; 5618.443
569.470; 1111.832;  434.505; 5411.875
570.053; 1166.888;  461.885; 5149.274
570.637; 1161.985;  379.297; 5122.798
571.220; 1317.153;  464.538; 4957.369
571.803; 1461.580;  541.031; 4933.018
572.386; 1431.921;  395.375; 4840.973
572.969; 1547.214;  404.785; 4592.886
573.552; 1678.458;  408.464; 4348.387
574.135; 1701.326;  381.817; 4002.290
574.718; 1740.732;  389.178; 3654.773
575.301; 1864.192;  385.145; 3502.288
575.884; 1987.653;  381.111; 3349.803
576.467; 2323.453;  478.927; 3191.403
577.050; 2576.013;  428.239; 3062.418
577.633; 2914.830;  519.252; 3214.200
578.216; 3022.159;  403.683; 3284.889
578.799; 3077.144;  404.034; 3189.777
579.381; 3395.564;  541.163; 3064.502
579.964; 3510.982;  385.784; 2888.357
580.547; 3805.361;  428.540; 2905.760
581.129; 4014.934;  497.348; 2966.849
581.712; 4120.827;  447.028; 2887.292
582.294; 4485.807;  420.025; 2771.631
582.877; 5017.630;  539.038; 2711.602
583.459; 5193.734;  414.466; 2577.049
584.042; 5626.931;  408.667; 2454.707
584.624; 6180.305;  379.923; 2305.893
585.206; 6375.178;  326.348; 2189.546
585.789; 6895.422;  391.946; 2112.577
586.371; 7272.162;  441.495; 2153.065
586.953; 7505.042;  465.752; 2197.806
587.536; 7727.592;  495.483; 2105.489
588.118; 8075.821;  411.286; 1963.911
588.700; 8792.399;  503.076; 1843.179
589.282; 9470.240;  447.902; 1813.834
589.864;10158.358;  420.445; 1777.620
590.446;10718.312;  329.246; 1733.780
591.028;11103.865;  425.227; 1676.008
591.610;10935.567;  342.207; 1631.649
592.192;11004.872;  430.570; 1632.362
592.774;10848.442;  365.246; 1569.507
593.356;11476.831;  392.805; 1524.539
593.937;11874.280;  383.391; 1569.720
594.519;12731.557;  481.979; 1569.049
595.101;13772.136;  348.094; 1545.452
