
Integration time [ms]:   3.276
Averaging Nr. [scans]: 1000
Smoothing Nr. [pixels]: 0
Data measured with spectrometer [name]: 7414430SP
Wave   ;Sample   ;Dark     ;Reference
[nm]   ;[counts] ;[counts] ;[counts] 

288.544;  149.223;    7.793;  793.890
289.143;  154.276;    7.462;  681.602
289.742;  154.072;    8.602;  828.814
290.341;  139.372;    1.321;  789.841
290.940;  127.693;   -0.709;  730.702
291.538;  128.633;    0.881;  881.108
292.137;  129.676;    0.122;  792.581
292.736;  133.553;   -1.929;  975.101
293.335;  131.146;   -8.229;  735.086
293.934;  130.725;   -5.279;  781.677
294.532;  128.279;   -1.369; 1031.958
295.131;  115.325;   -7.641;  834.394
295.730;  115.462;   -8.420;  809.588
296.328;  115.025;   -5.611;  783.442
296.927;  115.396;   -5.781;  779.652
297.525;  115.319;   -6.361;  781.236
298.124;  105.829;  -11.382;  654.009
298.722;  110.293;   -7.641;  761.933
299.321;  107.749;   -6.811;  708.597
299.919;  105.588;   -6.991;  751.918
300.518;  102.137;  -10.362;  689.338
301.116;  104.543;   -9.581;  691.381
301.715;  104.216;   -4.891;  730.222
302.313;  103.130;   -8.801;  704.943
302.911;   98.508;   -8.522;  733.830
303.509;  104.325;   -6.171;  925.627
304.108;  101.957;   -7.311;  760.383
304.706;  100.715;   -8.321;  801.664
305.304;   95.285;  -10.222;  796.707
305.902;  100.582;   -6.021;  784.484
306.500;   96.542;   -4.971;  728.200
307.098;   95.017;   -7.061;  746.560
307.696;   92.578;   -8.801;  780.432
308.294;   93.763;   -6.411;  731.359
308.892;   95.882;   -2.901;  759.769
309.490;   91.856;   -5.041;  712.161
310.088;   90.423;   -5.002;  788.444
310.686;   94.196;   -2.041;  821.749
311.284;   89.836;   -2.351;  766.040
311.882;   87.167;   -4.422;  731.225
312.480;   84.822;   -4.192;  697.167
313.078;   85.937;   -1.172;  808.331
313.675;   85.597;   -2.601;  691.600
314.273;   81.496;   -1.312;  797.837
314.871;   80.730;   -3.942;  589.829
315.468;   79.544;   -2.802;  652.090
316.066;   81.716;   -0.701;  694.427
316.664;   75.116;   -4.362;  656.351
317.261;   79.193;   -2.872;  910.128
317.859;   73.877;   -2.022;  768.735
318.456;   75.399;   -0.531;  830.096
319.054;   71.379;   -3.912;  787.828
319.651;   69.295;   -4.752;  759.928
320.249;   69.087;   -2.602;  810.188
320.846;   66.388;   -0.821;  714.286
321.443;   64.525;   -4.642;  832.135
322.041;   61.157;   -5.002;  812.315
322.638;   59.101;   -3.982;  701.456
323.235;   60.634;   -3.411;  665.683
323.833;   57.180;   -7.361;  740.354
324.430;   53.165;   -8.611;  615.900
325.027;   53.239;   -4.061;  876.855
325.624;   53.562;   -4.031;  644.532
326.221;   50.751;   -7.481;  689.717
326.818;   49.479;   -5.281;  818.332
327.415;   53.005;   -7.460;  748.828
328.012;   52.478;   -5.510;  690.585
328.609;   49.990;   -7.880;  731.389
329.206;   49.368;   -8.331;  778.621
329.803;   49.491;   -5.121;  737.841
330.400;   51.641;   -4.510;  704.260
330.997;   53.576;   -6.441;  817.147
331.594;   52.277;   -8.831;  788.185
332.191;   57.367;   -7.621;  728.722
332.787;   59.776;   -4.591;  844.463
333.384;   58.808;   -7.412;  763.093
333.981;   56.697;   -8.293;  815.687
334.578;   59.844;   -7.052;  708.378
335.174;   63.579;   -3.102;  731.469
335.771;   62.688;   -5.943;  836.456
336.367;   59.953;   -7.393;  710.631
336.964;   63.424;   -4.063;  793.266
337.561;   61.384;   -3.813;  731.112
338.157;   57.229;   -4.654;  911.916
338.754;   54.715;   -7.934;  796.589
339.350;   52.992;   -4.414;  722.493
339.946;   54.831;   -4.664;  773.135
340.543;   46.390;   -6.375;  846.136
341.139;   41.664;   -9.815;  720.836
341.735;   39.103;   -4.526;  772.593
342.332;   37.741;   -4.895;  691.472
342.928;   38.067;   -4.295;  795.394
343.524;   31.900;   -5.476;  761.684
344.120;   28.932;   -5.856;  738.562
344.716;   31.962;   -2.155;  723.717
345.313;   28.866;   -6.275;  795.342
345.909;   24.413;   -8.815;  627.336
346.505;   26.695;   -5.305;  740.247
347.101;   27.043;   -2.674;  827.864
347.697;   26.558;   -4.344;  785.398
348.293;   21.408;   -9.975;  627.244
348.889;   23.109;   -5.774;  745.914
349.485;   21.990;   -5.004;  688.205
350.081;   21.669;   -4.704;  772.592
350.676;   17.732;   -6.635;  691.606
351.272;   22.172;   -4.504;  809.530
351.868;   21.805;   -3.914;  780.497
352.464;   18.495;   -9.044;  723.932
353.059;   15.459;   -8.314;  646.017
353.655;   18.536;   -7.024;  777.063
354.251;   19.403;   -5.343;  759.845
354.846;   14.162;   -8.604;  740.646
355.442;   11.838;   -6.945;  753.071
356.038;   13.957;   -7.564;  751.708
356.633;   13.687;   -5.814;  728.594
357.229;   11.624;   -7.364;  724.757
357.824;    9.959;   -8.024;  703.600
358.420;    9.877;   -9.384;  679.726
359.015;    9.617;   -5.104;  695.357
359.610;   11.000;   -6.854;  763.920
360.206;    5.228;  -10.185;  603.240
360.801;    7.789;   -7.054;  646.503
361.396;    9.935;   -5.034;  725.975
361.992;    5.044;   -8.284;  668.220
362.587;    2.060;   -8.625;  670.160
363.182;    4.581;   -7.674;  689.631
363.777;    5.256;   -5.164;  738.242
364.372;    4.318;   -8.604;  737.314
364.967;    1.229;   -9.055;  680.744
365.563;    5.002;   -6.114;  815.567
366.158;    2.632;   -5.814;  685.161
366.753;    3.124;   -7.854;  649.263
367.348;    0.592;   -7.804;  746.056
367.942;    1.021;   -7.954;  697.298
368.537;    0.814;   -4.984;  754.245
369.132;    0.225;   -8.564;  703.428
369.727;   -4.107;   -8.855;  638.079
370.322;   -1.867;   -6.245;  580.186
370.917;   -2.165;   -6.425;  710.646
371.511;    0.751;   -6.294;  861.834
372.106;   -2.685;   -7.685;  776.964
372.701;   -5.900;   -7.335;  585.988
373.296;   -1.187;   -4.564;  863.135
373.890;   -5.714;  -10.235;  647.840
374.485;   -7.299;   -7.885;  691.199
375.079;   -3.132;   -7.324;  738.685
375.674;   -2.576;   -3.494;  812.970
376.268;   -6.881;   -8.525;  691.759
376.863;  -12.822;  -10.086;  580.327
377.457;   -5.981;   -7.025;  662.490
378.052;   -7.847;   -3.585;  764.884
378.646;   -9.408;   -7.595;  741.167
379.240;   -9.308;   -8.335;  721.176
379.835;   -8.544;   -5.785;  636.978
380.429;  -10.106;   -4.335;  562.557
381.023;  -10.449;   -6.805;  779.205
381.617;  -12.433;   -9.195;  680.106
382.212;   -8.789;   -6.905;  685.303
382.806;   -8.300;   -3.745;  760.690
383.400;  -12.819;   -7.745;  672.281
383.994;  -13.808;   -9.765;  664.870
384.588;   -9.563;   -6.564;  697.701
385.182;   -9.052;   -5.344;  726.624
385.776;  -10.332;   -8.514;  706.875
386.370;  -13.151;   -9.555;  681.968
386.964;  -11.785;   -8.715;  684.155
387.558;  -10.235;   -6.174;  598.360
388.152;  -13.911;   -8.725;  681.959
388.745;  -12.080;   -7.965;  814.707
389.339;  -11.050;   -5.924;  747.642
389.933;   -9.296;   -5.524;  695.370
390.527;  -10.943;   -7.114;  859.029
391.120;  -16.541;  -10.725;  595.318
391.714;  -13.336;   -8.035;  711.633
392.308;  -10.718;   -3.574;  780.253
392.901;  -14.356;   -7.245;  642.460
393.495;  -16.173;   -9.285;  595.414
394.089;  -14.000;   -5.895;  760.452
394.682;  -15.105;   -4.295;  697.188
395.275;  -15.281;   -9.875;  719.927
395.869;  -16.226;   -8.485;  667.314
396.462;  -14.007;   -7.455;  616.609
397.056;  -10.928;   -5.424;  776.621
397.649;  -15.949;   -6.605;  731.575
398.242;  -12.635;   -8.224;  712.645
398.836;  -12.685;   -7.474;  766.408
399.429;  -14.055;   -7.094;  631.041
400.022;  -17.142;   -9.475;  665.902
400.615;  -14.559;   -7.145;  805.609
401.208;  -12.202;   -7.174;  691.451
401.802;  -14.652;   -5.515;  699.329
402.395;  -16.489;   -9.875;  683.502
402.988;  -16.759;   -8.845;  696.627
403.581;  -12.971;   -8.874;  646.878
404.174;  -11.476;   -5.324;  686.568
404.767;  -15.055;   -9.575;  638.583
405.360;  -16.967;  -10.965;  621.445
405.953;  -11.296;   -8.764;  759.034
406.545;  -11.042;   -7.514;  725.342
407.138;  -14.555;  -10.025;  618.350
407.731;  -14.314;  -10.034;  613.303
408.324;   -9.870;   -9.374;  660.554
408.917;  -10.911;   -6.534;  681.864
409.509;  -13.533;   -8.004;  740.396
410.102;  -14.542;   -9.875;  643.948
410.695;   -8.580;   -8.604;  665.758
411.287;  -10.063;   -6.794;  599.821
411.880;  -11.697;   -9.334;  585.421
412.472;  -13.974;  -10.254;  613.092
413.065;  -11.105;   -6.714;  629.408
413.657;   -9.432;   -7.234;  576.678
414.250;   -9.293;  -10.544;  646.681
414.842;  -10.670;   -9.744;  676.353
415.434;   -8.309;   -6.994;  570.463
416.027;   -4.890;   -5.893;  652.196
416.619;   -6.716;   -7.264;  713.400
417.211;   -7.316;  -10.374;  599.352
417.804;   -2.986;   -7.993;  628.499
418.396;   -7.544;   -7.234;  607.643
418.988;   -5.000;   -9.443;  659.238
419.580;   -8.213;  -10.724;  568.276
420.172;   -5.872;  -10.323;  536.196
420.764;   -2.578;   -8.793;  672.482
421.356;   -3.708;  -11.143;  636.898
421.948;   -4.666;   -8.293;  677.661
422.540;    0.948;   -7.893;  680.027
423.132;    0.312;   -7.082;  600.641
423.724;   -3.550;   -8.653;  561.267
424.316;   -1.419;  -10.213;  621.345
424.908;    2.525;   -9.762;  591.517
425.500;    2.799;   -5.572;  647.978
426.092;    3.242;   -8.422;  648.268
426.683;    2.158;   -9.283;  684.836
427.275;    5.601;   -7.852;  641.471
427.867;    6.842;   -5.272;  668.948
428.458;    6.886;   -7.682;  732.344
429.050;    6.073;  -10.612;  680.749
429.642;    7.693;   -9.882;  743.124
430.233;    8.811;   -6.962;  569.356
430.825;    9.721;   -6.842;  724.809
431.416;    6.629;   -9.672;  698.241
432.008;   10.182;   -6.552;  651.723
432.599;   10.756;   -6.891;  656.073
433.190;    8.115;  -10.912;  637.670
433.782;    7.097;  -11.172;  590.395
434.373;   14.809;   -6.061;  884.765
434.964;   13.185;   -8.251;  602.920
435.556;   10.847;   -9.722;  634.537
436.147;   13.473;   -9.082;  758.490
436.738;   14.375;   -8.041;  701.099
437.329;   19.202;   -7.341;  721.723
437.920;   12.440;   -8.162;  666.688
438.511;   12.658;  -11.802;  564.526
439.103;   18.718;  -10.191;  623.998
439.694;   19.662;   -7.601;  681.583
440.285;   20.862;   -8.541;  764.432
440.876;   18.869;   -9.751;  845.738
441.466;   19.266;   -9.401;  575.162
442.057;   24.551;   -7.760;  665.814
442.648;   22.293;   -9.971;  746.255
443.239;   20.973;  -11.001;  620.477
443.830;   25.633;   -7.990;  704.958
444.421;   27.838;   -7.910;  655.474
445.011;   23.913;   -8.131;  693.619
445.602;   23.454;   -7.111;  743.126
446.193;   25.857;  -10.920;  488.117
446.783;   30.122;   -6.500;  640.397
447.374;   25.342;   -8.671;  692.759
447.964;   26.242;  -10.781;  713.770
448.555;   35.274;   -9.650;  822.742
449.145;   31.634;   -8.660;  662.853
449.736;   32.312;   -8.990;  803.179
450.326;   32.545;   -9.500;  713.626
450.917;   36.600;   -8.680;  675.324
451.507;   35.927;   -7.520;  600.661
452.097;   36.151;   -8.590;  746.267
452.688;   38.352;  -11.340;  742.160
453.278;   37.016;  -10.100;  566.840
453.868;   41.872;   -6.019;  793.550
454.458;   39.268;   -9.440;  651.141
455.048;   39.786;  -10.560;  711.783
455.639;   41.700;  -11.799;  567.096
456.229;   45.370;   -6.899;  710.694
456.819;   47.479;   -7.389;  751.158
457.409;   46.769;  -11.119;  773.993
457.999;   50.464;   -9.289;  737.505
458.589;   49.646;   -6.139;  686.606
459.179;   49.543;   -8.729;  717.658
459.769;   47.561;   -9.789;  627.099
460.358;   53.168;  -10.259;  797.262
460.948;   52.858;   -7.299;  689.503
461.538;   53.962;  -10.289;  660.677
462.128;   52.398;  -11.269;  664.934
462.717;   58.930;   -9.368;  710.326
463.307;   61.601;   -7.908;  705.846
463.897;   57.721;   -9.599;  656.942
464.486;   56.748;   -9.769;  837.128
465.076;   60.969;   -8.048;  733.776
465.666;   64.708;   -9.358;  652.900
466.255;   62.311;   -7.919;  785.651
466.845;   61.073;  -11.689;  666.749
467.434;   64.646;   -7.818;  725.873
468.023;   65.448;   -7.678;  658.357
468.613;   62.843;  -10.939;  713.946
469.202;   67.649;  -10.118;  646.507
469.791;   71.804;   -9.108;  737.811
470.381;   73.819;   -6.058;  742.813
470.970;   72.711;  -10.428;  711.099
471.559;   72.907;  -10.268;  733.291
472.148;   76.581;   -8.448;  675.737
472.738;   78.006;   -6.917;  765.466
473.327;   78.398;  -11.978;  637.529
473.916;   78.185;  -11.888;  737.446
474.505;   82.116;   -9.437;  751.703
475.094;   84.727;   -6.747;  806.570
475.683;   84.641;   -9.367;  797.699
476.272;   85.668;  -12.637;  730.632
476.861;   87.804;  -10.027;  706.754
477.449;   94.529;   -8.716;  728.487
478.038;   89.027;   -9.577;  692.513
478.627;   90.033;   -9.718;  714.852
479.216;   96.757;   -8.947;  769.441
479.805;   99.661;   -6.256;  783.375
480.393;   97.883;   -7.937; 1008.945
480.982;   97.189;   -7.717;  874.501
481.571;  103.490;   -9.266;  858.333
482.159;  105.018;   -7.636;  705.386
482.748;  104.125;   -9.667;  821.385
483.336;  108.769;  -10.376;  858.209
483.925;  109.321;   -7.147;  774.373
484.513;  116.682;   -7.996;  758.962
485.102;  113.123;  -10.027;  810.965
485.690;  122.216;  -10.446; 1011.050
486.278;  123.027;   -8.446;  979.329
486.867;  124.076;   -6.356;  809.662
487.455;  125.304;   -9.136;  898.229
488.043;  126.811;  -10.646;  748.361
488.631;  135.657;   -7.456; 1005.079
489.220;  139.371;   -6.636;  908.626
489.808;  139.093;  -11.036;  741.415
490.396;  147.521;  -10.246;  914.645
490.984;  153.404;   -8.556;  830.161
491.572;  163.188;   -5.886;  940.315
492.160;  167.907;   -9.486;  919.081
492.748;  179.144;  -10.976;  884.341
493.336;  201.862;   -8.776; 1019.693
493.924;  226.457;   -5.465;  958.077
494.512;  252.597;   -9.986; 1066.638
495.100;  289.982;  -10.636; 1103.280
495.687;  344.008;  -10.885; 1206.373
496.275;  403.226;   -8.126; 1150.796
496.863;  469.686;  -10.586; 1281.171
497.451;  567.766;  -11.926; 1386.805
498.038;  694.261;  -10.885; 1556.729
498.626;  792.086;   -6.315; 1741.407
499.214;  925.465;   -7.326; 2016.609
499.801; 1126.120;  -11.906; 2220.633
500.389; 1354.856;  -10.466; 2312.494
500.976; 1662.211;   -5.236; 2744.849
501.564; 2073.496;   -8.936; 3148.565
502.151; 2449.884;  -13.176; 3515.999
502.738; 2891.366;  -10.646; 3971.274
503.326; 3242.582;   -9.525; 4403.796
503.913; 3595.438;  -10.856; 5161.749
504.500; 3939.613;  -11.586; 5986.420
505.088; 4315.811;  -10.336; 6381.201
505.675; 4819.136;   -6.355; 6925.547
506.262; 5493.338;   -9.046; 7619.060
506.849; 6144.568;  -10.416; 8733.969
507.436; 6610.013;  -10.305; 9790.121
508.023; 7177.534;   -5.496; 9985.472
508.610; 7428.221;   -7.856;10434.618
509.197; 8037.513;  -10.097;11198.435
509.784; 9346.586;  -10.886;12391.194
510.371;10308.638;   -9.315;13603.713
510.958;10990.872;   -9.936;14426.586
511.545;11733.746;   -9.326;15243.775
512.132;12672.185;  -10.075;15945.876
512.719;13369.188;   -7.796;16340.369
513.305;14268.636;  -10.606;18011.766
513.892;15012.441;  -11.486;19754.971
514.479;16239.119;   -9.126;20967.805
515.066;17455.484;   -6.026;22299.793
515.652;18599.148;   -8.466;22908.660
516.239;20082.691;  -10.886;23798.875
516.825;21344.152;  -11.496;25567.275
517.412;22560.666;   -5.796;28154.959
517.998;23019.971;  -10.506;28344.111
518.585;22895.777;  -10.076;27134.219
519.171;23437.098;   -8.315;27268.576
519.758;25005.869;   -8.596;28964.129
520.344;26574.381;   -8.466;30664.494
520.930;26576.609;  -11.006;32550.605
521.516;28506.746;  -10.495;35422.895
522.103;30899.664;   -5.526;38280.004
522.689;31605.012;   -8.746;37835.117
523.275;30703.943;  -11.376;37288.613
523.861;31287.551;  -11.156;37281.395
524.447;32614.668;   -8.135;37846.949
525.033;32504.742;   -7.896;38321.949
525.619;32694.545;  -12.476;38579.285
526.205;34432.590;   -9.516;40622.875
526.791;36743.008;   -6.926;42258.836
527.377;36880.906;   -8.346;42966.902
527.963;38501.477;   -8.717;42018.949
528.549;36882.746;  -11.016;42476.828
529.135;35824.707;   -8.536;41854.852
529.721;35525.344;   -9.666;41237.711
530.306;35093.539;  -10.066;41259.445
530.892;34837.832;  -11.356;41506.047
531.478;36139.152;   -6.596;43559.613
532.063;38818.777;   -8.836;47695.563
532.649;38770.379;  -10.047;50808.324
533.235;39985.703;   -9.746;51787.500
533.820;41300.543;   -6.566;52145.035
534.406;42697.859;  -10.817;51133.488
534.991;42494.766;   -9.416;49996.805
535.576;41107.355;   -9.036;48882.852
536.162;41346.871;   -6.156;46942.285
536.747;42541.617;  -11.607;45711.746
537.333;46711.809;  -11.787;48510.180
537.918;48926.125;  -12.437;50439.891
538.503;47169.508;   -7.196;50863.711
539.088;44686.160;  -10.556;50906.922
539.673;44776.840;   -8.767;52621.965
540.259;44346.609;  -10.026;52368.094
540.844;41556.852;   -7.416;50879.109
541.429;42589.770;   -9.467;52077.777
542.014;45550.816;   -9.527;52716.695
542.599;44965.551;   -9.946;52363.281
543.184;43034.473;   -7.927;53187.137
543.769;44913.953;   -9.297;54697.605
544.354;43988.527;  -10.127;53913.914
544.938;42595.875;   -9.267;49680.164
545.523;44277.379;   -6.506;47386.277
546.108;46378.602;   -9.787;49151.949
546.693;48551.199;  -11.587;51384.637
547.278;48605.934;  -10.986;51853.254
547.862;45634.941;   -8.206;51173.750
548.447;41215.840;  -10.067;51691.395
549.031;40955.809;   -9.637;52456.703
549.616;45777.227;   -9.926;52714.516
550.201;44565.680;   -6.347;52414.598
550.785;45731.016;   -7.917;52355.059
551.370;45044.734;  -10.867;54589.453
551.954;45288.344;   -9.047;58267.348
552.538;45882.750;   -7.827;59062.176
553.123;44346.113;  -10.287;58115.285
553.707;42766.215;  -12.178;56556.285
554.291;43860.957;   -8.717;56201.668
554.876;45650.840;   -7.457;55335.762
555.460;46068.563;  -10.387;54155.703
556.044;47349.145;   -9.618;53721.484
556.628;45839.359;  -11.567;53731.016
557.212;44315.590;   -8.097;54312.531
557.796;42883.793;  -11.077;53797.773
558.380;42531.926;  -11.108;56145.984
558.964;42821.063;   -9.057;57277.930
559.548;43562.027;   -6.977;56459.641
560.132;42260.961;  -11.457;54434.543
560.716;41427.738;  -11.378;54800.617
561.300;42719.816;   -9.577;57606.945
561.884;43595.992;   -7.127;58972.445
562.467;42331.668;   -7.118;57327.570
563.051;41369.055;  -13.358;54962.434
563.635;41997.965;  -10.178;52594.473
564.219;42564.582;   -7.837;50610.410
564.802;43548.367;  -11.398;49551.180
565.386;43752.809;  -12.788;48370.953
565.969;43277.801;   -9.077;48178.871
566.553;43024.332;   -6.207;49957.305
567.136;42874.008;   -8.568;50369.594
567.720;38914.508;  -11.868;49492.004
568.303;37052.938;   -8.268;50616.352
568.887;37295.551;   -8.698;50727.148
569.470;37355.008;   -6.808;51698.379
570.053;35996.191;  -13.188;52122.078
570.637;34456.117;  -12.037;52536.438
571.220;34041.605;   -8.577;51186.098
571.803;34401.473;   -8.498;51032.762
572.386;37033.387;  -10.498;49609.887
572.969;39296.496;   -9.388;48285.926
573.552;37085.012;   -8.338;47624.285
574.135;35866.078;   -8.518;45498.641
574.718;33464.172;  -13.628;41970.434
575.301;32198.002;  -10.893;41447.137
575.884;30931.836;   -8.158;40923.836
576.467;32343.918;  -10.328;45267.723
577.050;34954.246;  -13.058;48175.543
577.633;36104.805;   -9.458;47729.328
578.216;34420.906;   -8.928;47579.793
578.799;33084.449;   -9.358;47820.996
579.381;31522.797;  -11.388;48115.551
579.964;30536.209;  -11.718;47333.766
580.547;32559.832;   -8.588;46668.969
581.129;34025.734;   -8.859;44466.141
581.712;34600.719;  -10.729;44164.922
582.294;35243.688;  -11.118;46477.855
582.877;35179.348;   -5.218;48244.254
583.459;32677.781;   -8.679;47437.895
584.042;30977.543;  -10.709;46943.219
584.624;31898.887;  -11.669;46792.227
585.206;31173.082;   -8.218;46557.250
585.789;31204.186;  -10.569;45793.773
586.371;33292.004;  -11.859;43836.391
586.953;32519.459;  -10.719;42972.492
587.536;32136.482;   -7.198;42487.211
588.118;29627.836;   -8.720;42086.414
588.700;26207.143;  -10.439;43389.930
589.282;27161.813;   -9.198;43646.039
589.864;30767.898;   -9.199;43438.109
590.446;33250.094;  -11.319;43151.926
591.028;33573.293;  -11.159;42781.867
591.610;32939.504;  -11.779;42839.098
592.192;30893.781;   -7.668;42820.402
592.774;29582.697;  -11.949;40724.277
593.356;28373.699;  -12.129;39874.789
593.937;27530.480;  -10.669;39980.648
594.519;29826.172;   -6.509;42069.633
595.101;31788.455;  -10.849;42976.031
