source_left
Integration time [ms]: 2924.932
Averaging Nr. [scans]: 20
Smoothing Nr. [pixels]: 0
Data measured with spectrometer [name]: 7414430SP
Wave   ;Sample   ;Dark     ;Reference
[nm]   ;[counts] ;[counts] ;[counts] 

288.544; 4097.528; 4004.872;    6.613
289.143; 3381.539; 3299.256;   14.216
289.742; 4382.772; 4251.540;   11.816
290.341; 4168.679; 4111.361;   -4.936
290.940; 3807.206; 3777.373;    0.852
291.538; 4822.389; 4707.574;    1.792
292.137; 4262.591; 4170.812;    6.262
292.736; 5551.779; 5393.361;    8.164
293.335; 3897.155; 3778.989;   -6.418
293.934; 4198.751; 4117.811;   -2.904
294.532; 5946.426; 5801.267;   -5.162
295.131; 4712.819; 4640.547;  -10.283
295.730; 4527.927; 4500.288;  -16.141
296.328; 4375.229; 4365.994;  -14.740
296.927; 4331.020; 4342.634;   -8.768
297.525; 4333.280; 4336.466;  -15.255
298.124; 3513.368; 3531.862;  -22.063
298.722; 4212.977; 4214.137;  -14.796
299.321; 3893.226; 3899.753;  -10.466
299.919; 4184.333; 4130.490;  -10.979
300.518; 3800.721; 3843.040;  -12.077
301.116; 3792.900; 3792.590;  -13.509
301.715; 4031.598; 4046.269;  -11.939
302.313; 3897.998; 3893.503;  -15.424
302.911; 4153.968; 4135.330;  -19.833
303.509; 5436.272; 5368.340;   -3.567
304.108; 4282.985; 4284.731;   -9.553
304.706; 4597.073; 4613.959;   -8.582
305.304; 4648.600; 4704.674;  -12.348
305.902; 4437.610; 4461.188;  -14.411
306.500; 4129.032; 4117.403;   -7.194
307.098; 4257.388; 4232.906;   -9.322
307.696; 4525.904; 4587.237;  -19.192
308.294; 4189.807; 4212.946;   -9.736
308.892; 4368.440; 4331.528;  -15.482
309.490; 4028.088; 4051.140;  -14.107
310.088; 4632.620; 4668.568;  -15.862
310.686; 4757.709; 4711.803;  -10.781
311.284; 4466.801; 4510.912;  -14.878
311.882; 4152.901; 4139.527;   -9.948
312.480; 3976.982; 3988.955;  -15.503
313.078; 4818.886; 4791.284;  -17.262
313.675; 3944.781; 3884.403;   -3.694
314.273; 4719.773; 4709.361;  -18.246
314.871; 3259.244; 3276.640;  -15.190
315.468; 3742.468; 3754.330;  -12.633
316.066; 4001.311; 4052.890;   -5.765
316.664; 3731.719; 3794.564;  -14.317
317.261; 5495.037; 5555.902;   -8.677
317.859; 4617.929; 4652.396;  -11.804
318.456; 5011.621; 5011.571;   -3.107
319.054; 4712.487; 4716.137;   -3.062
319.651; 4489.324; 4529.130;   -6.706
320.249; 4915.024; 4977.130;   -5.206
320.846; 4237.749; 4283.206;   -4.679
321.443; 5104.759; 5160.887;   -7.920
322.041; 4977.709; 5026.121;  -14.105
322.638; 4233.534; 4282.577;   -6.263
323.235; 3918.998; 3954.503;   -7.424
323.833; 4498.727; 4451.606;  -14.765
324.430; 3588.094; 3607.409;  -10.550
325.027; 5382.508; 5410.565;   -9.951
325.624; 3712.357; 3726.628;   -3.712
326.221; 4023.587; 3951.203;   -9.368
326.818; 4932.921; 4893.956;   -5.637
327.415; 4351.151; 4333.744;   -6.699
328.012; 3956.452; 3991.363;   -5.713
328.609; 4199.651; 4204.979;   -9.983
329.206; 4603.567; 4595.310;   -7.154
329.803; 4242.274; 4225.813;   -1.682
330.400; 3992.160; 3877.572;   -2.741
330.997; 4738.865; 4713.837;   -4.339
331.594; 4578.218; 4493.480;  -10.278
332.191; 4062.354; 4046.772;   -6.967
332.787; 4882.511; 4859.509;   -0.480
333.384; 4291.767; 4236.477;  -10.333
333.981; 4696.459; 4744.055;  -19.900
334.578; 3905.274; 3922.830;  -19.816
335.174; 4065.646; 4050.195;  -15.844
335.771; 4833.576; 4859.239;  -12.670
336.367; 4008.811; 4053.226;  -21.124
336.964; 4593.305; 4616.107;  -18.226
337.561; 4152.623; 4199.910;  -13.311
338.157; 5419.986; 5375.854;  -19.006
338.754; 4617.327; 4619.875;  -19.418
339.350; 4075.444; 4118.209;  -29.433
339.946; 4389.567; 4391.344;  -16.622
340.543; 4948.508; 4961.918;  -16.744
341.139; 4132.816; 4154.743;  -21.841
341.735; 4530.280; 4668.368;  -25.012
342.332; 3977.817; 4021.362;  -19.156
342.928; 4660.979; 4737.046;  -20.443
343.524; 4521.146; 4572.464;  -14.397
344.120; 4363.240; 4397.049;  -20.654
344.716; 4128.239; 4221.877;   -5.730
345.313; 4744.956; 4712.446;  -10.929
345.909; 3538.777; 3655.193;  -19.843
346.505; 4348.754; 4426.506;  -19.645
347.101; 4934.629; 5000.581;   -9.618
347.697; 4674.405; 4692.275;  -10.305
348.293; 3548.392; 3620.353;  -23.189
348.889; 4398.194; 4417.444;  -18.418
349.485; 3961.784; 3980.762;  -10.476
350.081; 4572.606; 4612.747;  -17.320
350.676; 4041.360; 4079.775;  -21.088
351.272; 4830.719; 4856.050;  -12.821
351.868; 4568.822; 4536.760;  -13.165
352.464; 4224.894; 4249.741;  -12.464
353.059; 3734.680; 3782.819;  -22.547
353.655; 4641.777; 4661.791;   -9.379
354.251; 4472.119; 4499.201;   -8.266
354.846; 4396.971; 4412.991;  -17.705
355.442; 4425.765; 4481.572;   -9.317
356.038; 4431.676; 4525.406;  -11.049
356.633; 4280.268; 4281.432;  -10.006
357.229; 4256.224; 4303.316;  -13.120
357.824; 4134.799; 4140.241;  -15.647
358.420; 3973.541; 4018.266;  -19.204
359.015; 4031.330; 4067.584;  -12.263
359.610; 4569.704; 4606.188;  -16.421
360.206; 3476.025; 3551.018;  -20.074
360.801; 3714.116; 3838.341;  -13.277
361.396; 4271.617; 4259.344;   -5.822
361.992; 3916.749; 3982.240;  -11.247
362.587; 3937.581; 3985.521;  -21.502
363.182; 4070.952; 4146.565;   -7.461
363.777; 4437.141; 4434.884;   -8.719
364.372; 4417.688; 4450.940;  -14.590
364.967; 4056.955; 4072.359;  -15.145
365.563; 4897.483; 4938.675;   -7.192
366.158; 4028.448; 4048.153;   -5.662
366.753; 3788.446; 3835.066;   -8.378
367.348; 4476.606; 4576.362;  -14.990
367.942; 4128.605; 4205.275;   -6.005
368.537; 4504.010; 4557.541;  -11.504
369.132; 4198.552; 4253.185;  -10.576
369.727; 3727.094; 3805.293;  -12.573
370.322; 3442.304; 3446.272;  -11.560
370.917; 4290.960; 4289.775;  -10.388
371.511; 5331.400; 5351.712;   -9.161
372.106; 4771.705; 4822.359;  -10.245
372.701; 3465.861; 3432.243;  -10.158
373.296; 5278.225; 5310.169;   -4.719
373.890; 3888.131; 3894.521;  -11.802
374.485; 4211.620; 4274.071;  -13.500
375.079; 4522.753; 4625.038;   -6.276
375.674; 5003.864; 5053.103;   -0.447
376.268; 4179.550; 4183.562;   -6.916
376.863; 3484.325; 3615.571;  -14.483
377.457; 4012.127; 4058.109;   -6.903
378.052; 4722.474; 4868.634;   -9.844
378.646; 4593.517; 4700.512;  -12.601
379.240; 4453.721; 4535.690;  -14.715
379.835; 3895.500; 3941.328;  -12.331
380.429; 3387.176; 3420.872;   -9.074
381.023; 4862.875; 4920.868;   -1.729
381.617; 4198.575; 4245.103;  -13.714
382.212; 4215.505; 4297.125;   -7.060
382.806; 4732.177; 4785.109;   -2.303
383.400; 4211.338; 4277.259;   -0.815
383.994; 4143.392; 4258.437;   -4.429
384.588; 4368.536; 4396.703;   -6.261
385.182; 4579.583; 4632.528;    0.008
385.776; 4479.182; 4437.672;   -3.247
386.370; 4279.254; 4346.740;   -1.030
386.964; 4298.301; 4357.947;   -1.346
387.558; 3707.273; 3764.463;   -2.020
388.152; 4316.837; 4357.790;   -5.345
388.745; 5212.741; 5306.734;   -2.774
389.339; 4651.354; 4780.656;    3.510
389.933; 4294.538; 4349.325;    5.280
390.527; 5560.990; 5602.647;    2.610
391.120; 3735.139; 3857.112;   -7.914
391.714; 4486.646; 4509.531;   -1.903
392.308; 5019.950; 5092.478;    6.023
392.901; 4078.412; 4174.247;   -4.103
393.495; 3782.852; 3904.268;    3.284
394.089; 4968.521; 5029.075;    8.655
394.682; 4503.528; 4644.196;    2.312
395.275; 4663.848; 4735.237;   -7.402
395.869; 4321.446; 4388.000;   -1.072
396.462; 3944.153; 4044.653;    6.454
397.056; 4980.904; 5062.422;    8.494
397.649; 4766.383; 4871.228;    1.599
398.242; 4625.516; 4745.809;    3.153
398.836; 4953.640; 5108.413;   11.395
399.429; 4020.173; 4053.697;   14.695
400.022; 4284.763; 4396.715;    3.627
400.615; 5297.016; 5410.425;    8.383
401.208; 4417.088; 4546.560;   13.295
401.802; 4515.709; 4629.921;    6.211
402.395; 4477.313; 4625.715;    7.227
402.988; 4517.886; 4596.787;    2.700
403.581; 4110.687; 4213.322;   11.225
404.174; 4373.714; 4471.635;   18.922
404.767; 4071.117; 4175.896;   14.169
405.360; 4032.518; 4173.365;    8.999
405.953; 4944.131; 5057.438;   13.138
406.545; 4722.878; 4833.878;   13.937
407.138; 3980.234; 4114.612;   10.869
407.731; 3974.298; 4069.622;   12.768
408.324; 4240.492; 4273.654;   22.921
408.917; 4435.083; 4523.528;   15.308
409.509; 4845.319; 5007.134;   12.239
410.102; 4223.941; 4357.968;   13.741
410.695; 4307.603; 4401.719;   20.249
411.287; 3873.115; 3967.872;   21.793
411.880; 3774.722; 3921.375;   22.965
412.472; 3961.145; 4132.297;   15.082
413.065; 4141.083; 4308.910;   23.423
413.657; 3725.346; 3820.216;   21.077
414.250; 4179.552; 4250.866;   12.349
414.842; 4373.381; 4509.203;   20.423
415.434; 3713.577; 3809.557;   19.906
416.027; 4187.970; 4325.970;   26.574
416.619; 4648.058; 4790.135;   15.705
417.211; 3858.861; 3975.460;   17.791
417.804; 4022.556; 4173.345;   30.244
418.396; 3951.714; 4008.785;   24.177
418.988; 4267.821; 4365.438;   24.904
419.580; 3668.148; 3810.303;   20.692
420.172; 3493.609; 3614.520;   22.275
420.764; 4321.518; 4434.264;   26.773
421.356; 4152.345; 4188.661;   25.731
421.948; 4375.076; 4444.088;   24.876
422.540; 4368.334; 4483.511;   30.042
423.132; 3855.786; 3983.983;   32.728
423.724; 3589.448; 3637.839;   21.317
424.316; 4016.455; 4112.873;   29.359
424.908; 3809.436; 3997.367;   28.798
425.500; 4191.817; 4264.327;   30.512
426.092; 4166.445; 4340.961;   26.741
426.683; 4507.088; 4602.689;   27.029
427.275; 4120.962; 4322.062;   32.611
427.867; 4264.263; 4357.680;   33.796
428.458; 4744.620; 4719.802;   34.453
429.050; 4391.826; 4472.920;   34.255
429.642; 4795.383; 4904.574;   39.082
430.233; 3536.604; 3700.852;   41.138
430.825; 4739.431; 4863.868;   31.581
431.416; 4514.610; 4599.205;   35.755
432.008; 4138.913; 4258.065;   40.566
432.599; 4143.285; 4266.196;   46.322
433.190; 4083.400; 4185.377;   46.897
433.782; 3591.205; 3748.174;   41.069
434.373; 5680.605; 5734.475;   48.778
434.964; 3787.538; 3935.906;   50.078
435.556; 4035.597; 4172.583;   52.381
436.147; 4870.898; 4922.821;   38.251
436.738; 4460.733; 4581.724;   47.237
437.329; 4568.192; 4636.000;   61.304
437.920; 4181.463; 4312.915;   48.611
438.511; 3510.395; 3755.493;   44.910
439.103; 3904.944; 4047.706;   62.404
439.694; 4294.979; 4411.228;   63.075
440.285; 4719.239; 4875.909;   61.033
440.876; 5459.376; 5532.987;   57.249
441.466; 3561.380; 3600.550;   61.306
442.057; 4136.605; 4178.541;   65.773
442.648; 4745.132; 4815.787;   65.676
443.239; 3883.189; 4012.525;   55.963
443.830; 4429.099; 4556.653;   69.631
444.421; 4072.473; 4164.494;   69.943
445.011; 4324.131; 4444.168;   72.791
445.602; 4673.023; 4821.428;   68.848
446.193; 2915.511; 3018.191;   80.044
446.783; 3873.859; 3949.635;   82.599
447.374; 4268.475; 4376.666;   77.419
447.964; 4465.927; 4640.990;   72.605
448.555; 5114.101; 5200.660;   82.041
449.145; 4068.162; 4128.810;   76.230
449.736; 5051.729; 5093.613;   75.545
450.326; 4415.646; 4477.328;   67.945
450.917; 4130.606; 4196.076;   77.598
451.507; 3640.820; 3757.701;   68.027
452.097; 4622.500; 4683.275;   67.771
452.688; 4519.096; 4642.245;   62.884
453.278; 3278.889; 3406.741;   65.512
453.868; 4944.085; 4984.095;   71.796
454.458; 3945.833; 4058.473;   60.956
455.048; 4348.101; 4482.895;   62.356
455.639; 3366.020; 3443.851;   58.782
456.229; 4294.795; 4431.926;   65.209
456.819; 4546.469; 4636.764;   61.466
457.409; 4750.321; 4802.470;   59.967
457.999; 4448.009; 4534.702;   58.093
458.589; 4059.103; 4049.433;   59.536
459.179; 4330.063; 4389.261;   55.994
459.769; 3696.763; 3801.729;   43.624
460.358; 4825.460; 4861.320;   46.978
460.948; 4103.004; 4203.052;   49.821
461.538; 3900.943; 3886.752;   54.678
462.128; 3924.695; 4015.926;   49.309
462.717; 4166.032; 4282.368;   52.774
463.307; 4183.856; 4202.590;   48.101
463.897; 3826.154; 3841.817;   45.606
464.486; 5097.297; 5152.632;   45.010
465.076; 4349.979; 4421.511;   45.519
465.666; 3741.345; 3791.290;   50.058
466.255; 4699.675; 4804.949;   44.463
466.845; 3829.670; 3955.533;   41.206
467.434; 4266.074; 4347.861;   44.847
468.023; 3749.784; 3783.693;   46.760
468.613; 4174.253; 4233.433;   39.736
469.202; 3667.969; 3741.830;   46.461
469.791; 4223.797; 4303.615;   47.944
470.381; 4235.466; 4319.803;   47.529
470.970; 4065.127; 4070.103;   43.773
471.559; 4271.836; 4293.165;   41.646
472.148; 3784.483; 3868.137;   37.914
472.738; 4370.204; 4408.269;   48.071
473.327; 3510.273; 3583.690;   47.871
473.916; 4201.156; 4264.824;   37.716
474.505; 4269.605; 4256.887;   40.256
475.094; 4650.615; 4695.866;   43.269
475.683; 4520.832; 4565.050;   36.499
476.272; 4079.359; 4097.065;   44.542
476.861; 3903.475; 3948.931;   42.297
477.449; 4001.831; 3969.882;   46.878
478.038; 3755.840; 3777.025;   35.156
478.627; 3900.615; 3876.568;   42.514
479.216; 4226.878; 4207.407;   43.937
479.805; 4274.398; 4278.832;   51.393
480.393; 5838.185; 5857.525;   53.239
480.982; 4947.887; 4896.465;   38.955
481.571; 4781.124; 4790.142;   45.436
482.159; 3674.694; 3691.654;   51.007
482.748; 4483.971; 4515.519;   49.695
483.336; 4674.519; 4598.579;   48.280
483.925; 3997.625; 4063.463;   47.166
484.513; 3957.369; 3935.260;   55.404
485.102; 4277.215; 4325.250;   54.238
485.690; 5594.798; 5619.982;   55.748
486.278; 5389.517; 5389.023;   55.934
486.867; 4155.507; 4127.811;   57.106
487.455; 4738.200; 4738.304;   56.979
488.043; 3669.252; 3691.629;   57.564
488.631; 5380.263; 5398.611;   57.432
489.220; 4697.142; 4672.864;   63.646
489.808; 3508.885; 3503.826;   65.449
490.396; 4653.844; 4640.186;   61.977
490.984; 3941.701; 3947.307;   68.834
491.572; 4645.689; 4567.773;   70.775
492.160; 4370.652; 4344.629;   67.564
492.748; 4036.546; 4080.360;   66.808
493.336; 4714.328; 4726.854;   79.747
493.924; 4044.232; 3995.183;   88.688
494.512; 4645.871; 4636.201;   84.120
495.100; 4523.271; 4472.669;   86.250
495.687; 4795.152; 4818.077;  103.074
496.275; 3899.164; 3908.229;  108.717
496.863; 4050.205; 3996.719;  107.035
497.451; 4004.563; 3961.695;  117.993
498.038; 4231.309; 4159.964;  120.116
498.626; 4072.854; 4050.548;  143.059
499.214; 4363.517; 4312.023;  153.434
499.801; 4251.523; 4222.907;  175.121
500.389; 3475.146; 3491.808;  185.617
500.976; 4451.085; 4402.742;  215.789
501.564; 4284.457; 4254.191;  240.321
502.151; 3076.528; 3080.938;  267.007
502.738; 4008.409; 4004.814;  317.961
503.326; 4102.675; 4175.680;  361.216
503.913; 4306.098; 4291.748;  401.433
504.500; 4413.677; 4366.851;  446.492
505.088; 3757.614; 3745.079;  512.063
505.675; 4098.547; 4029.045;  586.387
506.262; 4066.859; 4034.898;  671.021
506.849; 4173.561; 4133.520;  759.062
507.436; 4709.899; 4714.751;  849.788
508.023; 4154.384; 4087.889;  944.288
508.610; 4619.489; 4591.154; 1020.690
509.197; 4461.893; 4434.650; 1089.052
509.784; 4180.759; 4136.048; 1133.776
510.371; 3513.976; 3400.299; 1165.501
510.958; 4258.188; 4246.151; 1251.735
511.545; 4918.516; 4904.551; 1350.248
512.132; 4190.088; 4133.452; 1525.945
512.719; 3738.998; 3719.748; 1834.933
513.305; 3856.250; 3804.688; 1965.349
513.892; 4875.587; 4793.766; 1963.265
514.479; 4289.242; 4278.864; 2046.446
515.066; 4712.884; 4641.123; 2252.803
515.652; 4287.394; 4271.570; 2567.247
516.239; 4564.853; 4548.779; 2636.919
516.825; 3563.353; 3550.545; 2482.304
517.412; 5277.094; 5236.336; 2427.031
517.998; 4106.448; 4096.216; 2540.463
518.585; 4023.978; 3979.938; 2609.007
519.171; 4299.532; 4276.183; 2842.088
519.758; 3640.716; 3618.701; 3090.703
520.344; 4653.659; 4530.048; 3176.076
520.930; 3737.976; 3706.701; 3295.037
521.516; 4475.520; 4433.264; 3500.959
522.103; 4922.019; 4889.261; 3736.704
522.689; 4052.910; 3977.751; 3971.022
523.275; 4766.898; 4692.598; 4213.778
523.861; 4119.477; 4071.236; 4190.361
524.447; 4746.946; 4706.427; 4070.602
525.033; 4805.461; 4744.988; 4088.892
525.619; 3874.239; 3784.238; 4416.851
526.205; 3638.704; 3574.866; 4836.835
526.791; 4082.633; 3997.270; 4885.903
527.377; 3927.545; 3870.507; 4544.907
527.963; 4308.419; 4270.813; 4321.995
528.549; 4396.751; 4413.157; 4473.979
529.135; 3849.498; 3839.364; 4788.663
529.721; 4277.879; 4265.176; 4888.577
530.306; 5758.001; 5692.157; 4775.779
530.892; 4023.425; 4010.379; 4793.906
531.478; 3958.197; 3944.129; 4956.948
532.063; 3776.690; 3717.857; 5136.936
532.649; 5215.709; 5212.601; 5336.867
533.235; 3802.646; 3771.126; 5748.092
533.820; 4853.320; 4818.498; 6456.875
534.406; 4118.926; 4093.316; 6590.167
534.991; 3832.726; 3733.466; 6179.622
535.576; 4158.410; 4062.135; 6098.691
536.162; 5808.218; 5735.876; 6441.234
536.747; 3618.934; 3554.291; 6816.224
537.333; 3864.929; 3828.641; 6889.752
537.918; 4174.837; 4117.000; 7154.280
538.503; 3936.148; 3871.982; 7150.848
539.088; 4396.265; 4380.782; 7253.308
539.673; 4028.921; 3968.285; 7625.180
540.259; 3897.480; 3912.410; 8226.793
540.844; 3432.011; 3344.988; 8745.092
541.429; 5140.031; 5059.347; 8762.553
542.014; 3573.244; 3532.353; 8871.497
542.599; 4393.396; 4319.360; 8886.008
543.184; 3695.899; 3630.535; 9079.139
543.769; 3926.109; 3913.981; 9076.182
544.354; 4032.874; 4012.844; 8354.081
544.938; 4372.283; 4321.204; 8236.809
545.523; 5097.466; 5027.020; 8222.179
546.108; 4200.826; 4054.550; 8114.082
546.693; 4168.494; 4108.587; 8535.912
547.278; 4208.912; 4139.457; 9238.322
547.862; 4194.424; 4117.526; 9034.405
548.447; 4721.856; 4645.891; 7795.011
549.031; 4053.549; 4018.619; 7485.099
549.616; 4363.248; 4261.066; 7626.308
550.201; 3952.568; 3844.341; 7627.909
550.785; 4583.436; 4549.997; 7859.125
551.370; 3691.201; 3665.475; 7990.654
551.954; 4718.596; 4625.444; 8196.468
552.538; 4616.087; 4446.382; 7959.495
553.123; 3954.922; 3906.988; 7964.826
553.707; 4103.843; 4103.584; 8515.957
554.291; 4958.302; 4790.860; 8724.024
554.876; 4687.674; 4614.459; 8524.211
555.460; 4001.305; 3811.887; 8704.456
556.044; 3981.144; 3837.671; 9141.473
556.628; 4273.095; 4167.206; 9250.197
557.212; 4904.544; 4763.270; 9444.237
557.796; 4198.514; 4094.247; 9379.783
558.380; 4527.612; 4369.859; 9353.658
558.964; 4420.270; 4287.047; 9210.310
559.548; 3767.530; 3581.494; 8475.153
560.132; 4192.968; 3969.659; 7954.084
560.716; 3881.433; 3639.371; 7489.529
561.300; 3852.428; 3564.788; 7211.952
561.884; 4744.710; 4539.303; 7141.313
562.467; 4716.423; 4470.924; 7155.386
563.051; 4471.427; 4146.721; 7323.158
563.635; 4443.266; 4171.568; 7709.114
564.219; 4523.703; 4133.181; 7678.855
564.802; 4879.808; 4376.062; 7376.187
565.386; 4701.041; 4231.112; 7054.372
565.969; 5386.257; 4842.510; 6589.196
566.553; 5918.804; 5321.269; 6279.371
567.136; 5469.034; 4831.225; 5967.930
567.720; 4965.226; 4192.718; 5660.703
568.303; 5173.235; 4339.843; 5648.615
568.887; 5129.511; 4284.771; 5618.443
569.470; 5377.234; 4318.074; 5411.875
570.053; 5711.766; 4578.652; 5149.274
570.637; 5188.613; 3843.628; 5122.798
571.220; 6125.300; 4546.856; 4957.369
571.803; 6982.127; 5279.805; 4933.018
572.386; 5749.313; 4051.093; 4840.973
572.969; 5918.405; 4061.503; 4592.886
573.552; 6204.674; 4155.778; 4348.387
574.135; 5981.284; 3762.308; 4002.290
574.718; 6181.179; 3874.809; 3654.773
575.301; 6329.679; 3892.616; 3502.288
575.884; 6478.178; 3910.424; 3349.803
576.467; 7908.776; 4728.718; 3191.403
577.050; 8082.526; 4393.952; 3062.418
577.633; 9429.035; 5242.462; 3214.200
578.216; 8578.530; 4147.896; 3284.889
578.799; 8788.255; 4101.055; 3189.777
579.381;10437.143; 5402.434; 3064.502
579.964; 9499.643; 3852.584; 2888.357
580.547;10619.069; 4300.831; 2905.760
581.129;12007.629; 4986.127; 2966.849
581.712;11770.892; 4396.280; 2887.292
582.294;11785.821; 4247.921; 2771.631
582.877;13369.792; 5456.581; 2711.602
583.459;12649.831; 4171.833; 2577.049
584.042;12761.055; 4103.670; 2454.707
584.624;12745.608; 3804.849; 2305.893
585.206;13083.587; 3320.018; 2189.546
585.789;15232.024; 3974.330; 2112.577
586.371;16906.684; 4489.773; 2153.065
586.953;17885.420; 4581.680; 2197.806
587.536;18885.330; 4976.896; 2105.489
588.118;18214.152; 4125.898; 1963.911
588.700;19435.996; 4946.311; 1843.179
589.282;20033.328; 4478.893; 1813.834
589.864;20587.801; 4248.493; 1777.620
590.446;21196.516; 3476.439; 1733.780
591.028;23695.010; 4296.936; 1676.008
591.610;24581.080; 3482.980; 1631.649
592.192;25755.291; 4292.812; 1632.362
592.774;25054.225; 3808.945; 1569.507
593.356;25480.879; 4004.826; 1524.539
593.937;26266.582; 3923.071; 1569.720
594.519;28207.113; 4728.411; 1569.049
595.101;27508.840; 3603.511; 1545.452
