source
Integration time [ms]: 2924.932
Averaging Nr. [scans]: 20
Smoothing Nr. [pixels]: 0
Data measured with spectrometer [name]: 7414430SP
Wave   ;Sample   ;Dark     ;Reference
[nm]   ;[counts] ;[counts] ;[counts] 

288.544; 4080.442; 4004.872;    6.613
289.143; 3355.611; 3299.256;   14.216
289.742; 4351.983; 4251.540;   11.816
290.341; 4159.296; 4111.361;   -4.936
290.940; 3801.471; 3777.373;    0.852
291.538; 4783.030; 4707.574;    1.792
292.137; 4235.497; 4170.812;    6.262
292.736; 5535.146; 5393.361;    8.164
293.335; 3881.220; 3778.989;   -6.418
293.934; 4187.665; 4117.811;   -2.904
294.532; 5916.804; 5801.267;   -5.162
295.131; 4684.934; 4640.547;  -10.283
295.730; 4530.095; 4500.288;  -16.141
296.328; 4352.976; 4365.994;  -14.740
296.927; 4300.356; 4342.634;   -8.768
297.525; 4302.749; 4336.466;  -15.255
298.124; 3489.094; 3531.862;  -22.063
298.722; 4193.300; 4214.137;  -14.796
299.321; 3867.099; 3899.753;  -10.466
299.919; 4168.149; 4130.490;  -10.979
300.518; 3781.648; 3843.040;  -12.077
301.116; 3770.179; 3792.590;  -13.509
301.715; 4018.700; 4046.269;  -11.939
302.313; 3884.307; 3893.503;  -15.424
302.911; 4125.058; 4135.330;  -19.833
303.509; 5407.937; 5368.340;   -3.567
304.108; 4265.726; 4284.731;   -9.553
304.706; 4577.746; 4613.959;   -8.582
305.304; 4627.892; 4704.674;  -12.348
305.902; 4399.515; 4461.188;  -14.411
306.500; 4100.827; 4117.403;   -7.194
307.098; 4241.871; 4232.906;   -9.322
307.696; 4515.498; 4587.237;  -19.192
308.294; 4163.539; 4212.946;   -9.736
308.892; 4356.939; 4331.528;  -15.482
309.490; 4006.178; 4051.140;  -14.107
310.088; 4592.125; 4668.568;  -15.862
310.686; 4721.364; 4711.803;  -10.781
311.284; 4444.608; 4510.912;  -14.878
311.882; 4101.207; 4139.527;   -9.948
312.480; 3956.604; 3988.955;  -15.503
313.078; 4767.603; 4791.284;  -17.262
313.675; 3930.077; 3884.403;   -3.694
314.273; 4689.328; 4709.361;  -18.246
314.871; 3236.912; 3276.640;  -15.190
315.468; 3704.508; 3754.330;  -12.633
316.066; 3984.986; 4052.890;   -5.765
316.664; 3738.715; 3794.564;  -14.317
317.261; 5448.761; 5555.902;   -8.677
317.859; 4585.708; 4652.396;  -11.804
318.456; 4988.484; 5011.571;   -3.107
319.054; 4684.418; 4716.137;   -3.062
319.651; 4455.531; 4529.130;   -6.706
320.249; 4880.931; 4977.130;   -5.206
320.846; 4212.478; 4283.206;   -4.679
321.443; 5073.226; 5160.887;   -7.920
322.041; 4963.333; 5026.121;  -14.105
322.638; 4215.322; 4282.577;   -6.263
323.235; 3898.107; 3954.503;   -7.424
323.833; 4472.864; 4451.606;  -14.765
324.430; 3556.015; 3607.409;  -10.550
325.027; 5366.697; 5410.565;   -9.951
325.624; 3698.819; 3726.628;   -3.712
326.221; 4002.250; 3951.203;   -9.368
326.818; 4902.086; 4893.956;   -5.637
327.415; 4319.583; 4333.744;   -6.699
328.012; 3944.442; 3991.363;   -5.713
328.609; 4185.840; 4204.979;   -9.983
329.206; 4577.917; 4595.310;   -7.154
329.803; 4219.511; 4225.813;   -1.682
330.400; 3980.066; 3877.572;   -2.741
330.997; 4701.093; 4713.837;   -4.339
331.594; 4561.352; 4493.480;  -10.278
332.191; 4037.744; 4046.772;   -6.967
332.787; 4837.794; 4859.509;   -0.480
333.384; 4278.092; 4236.477;  -10.333
333.981; 4648.102; 4744.055;  -19.900
334.578; 3891.292; 3922.830;  -19.816
335.174; 4042.498; 4050.195;  -15.844
335.771; 4795.994; 4859.239;  -12.670
336.367; 3993.986; 4053.226;  -21.124
336.964; 4561.244; 4616.107;  -18.226
337.561; 4136.245; 4199.910;  -13.311
338.157; 5383.160; 5375.854;  -19.006
338.754; 4590.033; 4619.875;  -19.418
339.350; 4093.869; 4118.209;  -29.433
339.946; 4371.829; 4391.344;  -16.622
340.543; 4938.678; 4961.918;  -16.744
341.139; 4105.551; 4154.743;  -21.841
341.735; 4551.997; 4668.368;  -25.012
342.332; 3953.859; 4021.362;  -19.156
342.928; 4658.568; 4737.046;  -20.443
343.524; 4493.967; 4572.464;  -14.397
344.120; 4328.095; 4397.049;  -20.654
344.716; 4101.860; 4221.877;   -5.730
345.313; 4703.554; 4712.446;  -10.929
345.909; 3544.652; 3655.193;  -19.843
346.505; 4339.316; 4426.506;  -19.645
347.101; 4875.063; 5000.581;   -9.618
347.697; 4631.769; 4692.275;  -10.305
348.293; 3536.294; 3620.353;  -23.189
348.889; 4370.476; 4417.444;  -18.418
349.485; 3923.828; 3980.762;  -10.476
350.081; 4554.993; 4612.747;  -17.320
350.676; 4023.453; 4079.775;  -21.088
351.272; 4786.759; 4856.050;  -12.821
351.868; 4523.350; 4536.760;  -13.165
352.464; 4190.505; 4249.741;  -12.464
353.059; 3714.280; 3782.819;  -22.547
353.655; 4615.170; 4661.791;   -9.379
354.251; 4443.904; 4499.201;   -8.266
354.846; 4372.347; 4412.991;  -17.705
355.442; 4405.866; 4481.572;   -9.317
356.038; 4385.319; 4525.406;  -11.049
356.633; 4234.201; 4281.432;  -10.006
357.229; 4238.736; 4303.316;  -13.120
357.824; 4121.439; 4140.241;  -15.647
358.420; 3927.822; 4018.266;  -19.204
359.015; 4008.173; 4067.584;  -12.263
359.610; 4549.797; 4606.188;  -16.421
360.206; 3432.157; 3551.018;  -20.074
360.801; 3699.169; 3838.341;  -13.277
361.396; 4251.479; 4259.344;   -5.822
361.992; 3890.089; 3982.240;  -11.247
362.587; 3918.501; 3985.521;  -21.502
363.182; 4021.529; 4146.565;   -7.461
363.777; 4413.230; 4434.884;   -8.719
364.372; 4377.982; 4450.940;  -14.590
364.967; 4039.332; 4072.359;  -15.145
365.563; 4866.755; 4938.675;   -7.192
366.158; 4000.317; 4048.153;   -5.662
366.753; 3776.994; 3835.066;   -8.378
367.348; 4437.441; 4576.362;  -14.990
367.942; 4089.269; 4205.275;   -6.005
368.537; 4496.096; 4557.541;  -11.504
369.132; 4162.037; 4253.185;  -10.576
369.727; 3705.532; 3805.293;  -12.573
370.322; 3392.609; 3446.272;  -11.560
370.917; 4246.653; 4289.775;  -10.388
371.511; 5296.813; 5351.712;   -9.161
372.106; 4730.731; 4822.359;  -10.245
372.701; 3430.567; 3432.243;  -10.158
373.296; 5235.202; 5310.169;   -4.719
373.890; 3858.651; 3894.521;  -11.802
374.485; 4170.100; 4274.071;  -13.500
375.079; 4499.452; 4625.038;   -6.276
375.674; 4968.302; 5053.103;   -0.447
376.268; 4128.668; 4183.562;   -6.916
376.863; 3460.334; 3615.571;  -14.483
377.457; 3988.890; 4058.109;   -6.903
378.052; 4658.006; 4868.634;   -9.844
378.646; 4562.304; 4700.512;  -12.601
379.240; 4415.008; 4535.690;  -14.715
379.835; 3866.512; 3941.328;  -12.331
380.429; 3355.723; 3420.872;   -9.074
381.023; 4820.013; 4920.868;   -1.729
381.617; 4166.670; 4245.103;  -13.714
382.212; 4165.925; 4297.125;   -7.060
382.806; 4688.990; 4785.109;   -2.303
383.400; 4168.252; 4277.259;   -0.815
383.994; 4118.407; 4258.437;   -4.429
384.588; 4324.616; 4396.703;   -6.261
385.182; 4520.271; 4632.528;    0.008
385.776; 4416.146; 4437.672;   -3.247
386.370; 4226.723; 4346.740;   -1.030
386.964; 4255.270; 4357.947;   -1.346
387.558; 3687.621; 3764.463;   -2.020
388.152; 4249.588; 4357.790;   -5.345
388.745; 5187.786; 5306.734;   -2.774
389.339; 4608.111; 4780.656;    3.510
389.933; 4263.784; 4349.325;    5.280
390.527; 5496.863; 5602.647;    2.610
391.120; 3708.468; 3857.112;   -7.914
391.714; 4418.449; 4509.531;   -1.903
392.308; 4942.606; 5092.478;    6.023
392.901; 4034.527; 4174.247;   -4.103
393.495; 3741.250; 3904.268;    3.284
394.089; 4913.360; 5029.075;    8.655
394.682; 4445.612; 4644.196;    2.312
395.275; 4589.979; 4735.237;   -7.402
395.869; 4251.313; 4388.000;   -1.072
396.462; 3885.551; 4044.653;    6.454
397.056; 4934.004; 5062.422;    8.494
397.649; 4724.382; 4871.228;    1.599
398.242; 4581.533; 4745.809;    3.153
398.836; 4905.556; 5108.413;   11.395
399.429; 3976.778; 4053.697;   14.695
400.022; 4280.741; 4396.715;    3.627
400.615; 5246.631; 5410.425;    8.383
401.208; 4374.641; 4546.560;   13.295
401.802; 4474.788; 4629.921;    6.211
402.395; 4422.241; 4625.715;    7.227
402.988; 4473.028; 4596.787;    2.700
403.581; 4058.124; 4213.322;   11.225
404.174; 4338.038; 4471.635;   18.922
404.767; 4034.505; 4175.896;   14.169
405.360; 3983.469; 4173.365;    8.999
405.953; 4880.389; 5057.438;   13.138
406.545; 4661.993; 4833.878;   13.937
407.138; 3942.233; 4114.612;   10.869
407.731; 3932.031; 4069.622;   12.768
408.324; 4189.683; 4273.654;   22.921
408.917; 4389.371; 4523.528;   15.308
409.509; 4789.872; 5007.134;   12.239
410.102; 4174.042; 4357.968;   13.741
410.695; 4268.583; 4401.719;   20.249
411.287; 3825.205; 3967.872;   21.793
411.880; 3733.449; 3921.375;   22.965
412.472; 3915.392; 4132.297;   15.082
413.065; 4083.413; 4308.910;   23.423
413.657; 3682.839; 3820.216;   21.077
414.250; 4129.067; 4250.866;   12.349
414.842; 4351.232; 4509.203;   20.423
415.434; 3675.113; 3809.557;   19.906
416.027; 4138.157; 4325.970;   26.574
416.619; 4603.954; 4790.135;   15.705
417.211; 3800.243; 3975.460;   17.791
417.804; 3982.111; 4173.345;   30.244
418.396; 3909.782; 4008.785;   24.177
418.988; 4233.071; 4365.438;   24.904
419.580; 3629.711; 3810.303;   20.692
420.172; 3454.055; 3614.520;   22.275
420.764; 4273.426; 4434.264;   26.773
421.356; 4111.603; 4188.661;   25.731
421.948; 4336.499; 4444.088;   24.876
422.540; 4317.090; 4483.511;   30.042
423.132; 3810.314; 3983.983;   32.728
423.724; 3566.307; 3637.839;   21.317
424.316; 3958.537; 4112.873;   29.359
424.908; 3764.665; 3997.367;   28.798
425.500; 4150.198; 4264.327;   30.512
426.092; 4123.841; 4340.961;   26.741
426.683; 4458.845; 4602.689;   27.029
427.275; 4075.021; 4322.062;   32.611
427.867; 4222.179; 4357.680;   33.796
428.458; 4697.682; 4719.802;   34.453
429.050; 4351.674; 4472.920;   34.255
429.642; 4749.462; 4904.574;   39.082
430.233; 3508.246; 3700.852;   41.138
430.825; 4689.231; 4863.868;   31.581
431.416; 4456.046; 4599.205;   35.755
432.008; 4084.731; 4258.065;   40.566
432.599; 4102.230; 4266.196;   46.322
433.190; 4036.113; 4185.377;   46.897
433.782; 3571.826; 3748.174;   41.069
434.373; 5632.464; 5734.475;   48.778
434.964; 3752.571; 3935.906;   50.078
435.556; 3985.959; 4172.583;   52.381
436.147; 4819.076; 4922.821;   38.251
436.738; 4414.207; 4581.724;   47.237
437.329; 4516.163; 4636.000;   61.304
437.920; 4140.986; 4312.915;   48.611
438.511; 3484.927; 3755.493;   44.910
439.103; 3860.794; 4047.706;   62.404
439.694; 4263.382; 4411.228;   63.075
440.285; 4675.481; 4875.909;   61.033
440.876; 5402.206; 5532.987;   57.249
441.466; 3508.162; 3600.550;   61.306
442.057; 4093.846; 4178.541;   65.773
442.648; 4699.479; 4815.787;   65.676
443.239; 3831.879; 4012.525;   55.963
443.830; 4378.101; 4556.653;   69.631
444.421; 4025.941; 4164.494;   69.943
445.011; 4269.720; 4444.168;   72.791
445.602; 4632.709; 4821.428;   68.848
446.193; 2892.775; 3018.191;   80.044
446.783; 3836.038; 3949.635;   82.599
447.374; 4233.826; 4376.666;   77.419
447.964; 4424.266; 4640.990;   72.605
448.555; 5061.171; 5200.660;   82.041
449.145; 4038.083; 4128.810;   76.230
449.736; 5005.934; 5093.613;   75.545
450.326; 4376.462; 4477.328;   67.945
450.917; 4085.292; 4196.076;   77.598
451.507; 3603.438; 3757.701;   68.027
452.097; 4604.219; 4683.275;   67.771
452.688; 4488.350; 4642.245;   62.884
453.278; 3252.906; 3406.741;   65.512
453.868; 4894.237; 4984.095;   71.796
454.458; 3913.219; 4058.473;   60.956
455.048; 4294.678; 4482.895;   62.356
455.639; 3330.183; 3443.851;   58.782
456.229; 4268.430; 4431.926;   65.209
456.819; 4510.510; 4636.764;   61.466
457.409; 4704.791; 4802.470;   59.967
457.999; 4402.070; 4534.702;   58.093
458.589; 4015.083; 4049.433;   59.536
459.179; 4300.167; 4389.261;   55.994
459.769; 3670.230; 3801.729;   43.624
460.358; 4767.329; 4861.320;   46.978
460.948; 4057.692; 4203.052;   49.821
461.538; 3863.035; 3886.752;   54.678
462.128; 3878.080; 4015.926;   49.309
462.717; 4149.966; 4282.368;   52.774
463.307; 4119.498; 4202.590;   48.101
463.897; 3790.035; 3841.817;   45.606
464.486; 5052.311; 5152.632;   45.010
465.076; 4307.590; 4421.511;   45.519
465.666; 3695.391; 3791.290;   50.058
466.255; 4659.134; 4804.949;   44.463
466.845; 3794.413; 3955.533;   41.206
467.434; 4220.262; 4347.861;   44.847
468.023; 3703.355; 3783.693;   46.760
468.613; 4126.083; 4233.433;   39.736
469.202; 3643.492; 3741.830;   46.461
469.791; 4219.830; 4303.615;   47.944
470.381; 4193.182; 4319.803;   47.529
470.970; 4022.289; 4070.103;   43.773
471.559; 4225.079; 4293.165;   41.646
472.148; 3741.819; 3868.137;   37.914
472.738; 4332.918; 4408.269;   48.071
473.327; 3482.227; 3583.690;   47.871
473.916; 4161.404; 4264.824;   37.716
474.505; 4232.227; 4256.887;   40.256
475.094; 4623.004; 4695.866;   43.269
475.683; 4488.696; 4565.050;   36.499
476.272; 4040.981; 4097.065;   44.542
476.861; 3859.554; 3948.931;   42.297
477.449; 3946.971; 3969.882;   46.878
478.038; 3710.064; 3777.025;   35.156
478.627; 3852.875; 3876.568;   42.514
479.216; 4190.587; 4207.407;   43.937
479.805; 4237.856; 4278.832;   51.393
480.393; 5769.880; 5857.525;   53.239
480.982; 4909.968; 4896.465;   38.955
481.571; 4752.061; 4790.142;   45.436
482.159; 3647.251; 3691.654;   51.007
482.748; 4431.742; 4515.519;   49.695
483.336; 4637.154; 4598.579;   48.280
483.925; 3953.590; 4063.463;   47.166
484.513; 3920.085; 3935.260;   55.404
485.102; 4225.555; 4325.250;   54.238
485.690; 5564.650; 5619.982;   55.748
486.278; 5330.018; 5389.023;   55.934
486.867; 4120.284; 4127.811;   57.106
487.455; 4701.830; 4738.304;   56.979
488.043; 3643.569; 3691.629;   57.564
488.631; 5329.057; 5398.611;   57.432
489.220; 4655.708; 4672.864;   63.646
489.808; 3471.619; 3503.826;   65.449
490.396; 4605.337; 4640.186;   61.977
490.984; 3892.390; 3947.307;   68.834
491.572; 4595.226; 4567.773;   70.775
492.160; 4345.919; 4344.629;   67.564
492.748; 4004.482; 4080.360;   66.808
493.336; 4672.661; 4726.854;   79.747
493.924; 4031.010; 3995.183;   88.688
494.512; 4600.172; 4636.201;   84.120
495.100; 4494.586; 4472.669;   86.250
495.687; 4760.343; 4818.077;  103.074
496.275; 3854.165; 3908.229;  108.717
496.863; 4023.301; 3996.719;  107.035
497.451; 3975.119; 3961.695;  117.993
498.038; 4197.088; 4159.964;  120.116
498.626; 4036.816; 4050.548;  143.059
499.214; 4328.518; 4312.023;  153.434
499.801; 4209.204; 4222.907;  175.121
500.389; 3459.106; 3491.808;  185.617
500.976; 4400.556; 4402.742;  215.789
501.564; 4247.025; 4254.191;  240.321
502.151; 3047.723; 3080.938;  267.007
502.738; 3971.643; 4004.814;  317.961
503.326; 4059.416; 4175.680;  361.216
503.913; 4259.443; 4291.748;  401.433
504.500; 4395.151; 4366.851;  446.492
505.088; 3710.170; 3745.079;  512.063
505.675; 4072.323; 4029.045;  586.387
506.262; 4041.056; 4034.898;  671.021
506.849; 4142.074; 4133.520;  759.062
507.436; 4687.954; 4714.751;  849.788
508.023; 4127.491; 4087.889;  944.288
508.610; 4597.118; 4591.154; 1020.690
509.197; 4431.842; 4434.650; 1089.052
509.784; 4146.200; 4136.048; 1133.776
510.371; 3462.174; 3400.299; 1165.501
510.958; 4242.158; 4246.151; 1251.735
511.545; 4885.494; 4904.551; 1350.248
512.132; 4153.697; 4133.452; 1525.945
512.719; 3709.994; 3719.748; 1834.933
513.305; 3814.431; 3804.688; 1965.349
513.892; 4827.656; 4793.766; 1963.265
514.479; 4248.658; 4278.864; 2046.446
515.066; 4672.848; 4641.123; 2252.803
515.652; 4254.189; 4271.570; 2567.247
516.239; 4539.213; 4548.779; 2636.919
516.825; 3526.307; 3550.545; 2482.304
517.412; 5244.982; 5236.336; 2427.031
517.998; 4069.308; 4096.216; 2540.463
518.585; 4008.623; 3979.938; 2609.007
519.171; 4273.810; 4276.183; 2842.088
519.758; 3612.889; 3618.701; 3090.703
520.344; 4614.150; 4530.048; 3176.076
520.930; 3711.406; 3706.701; 3295.037
521.516; 4428.145; 4433.264; 3500.959
522.103; 4884.935; 4889.261; 3736.704
522.689; 4025.921; 3977.751; 3971.022
523.275; 4736.449; 4692.598; 4213.778
523.861; 4085.002; 4071.236; 4190.361
524.447; 4712.064; 4706.427; 4070.602
525.033; 4771.138; 4744.988; 4088.892
525.619; 3855.180; 3784.238; 4416.851
526.205; 3596.236; 3574.866; 4836.835
526.791; 4053.332; 3997.270; 4885.903
527.377; 3894.817; 3870.507; 4544.907
527.963; 4273.361; 4270.813; 4321.995
528.549; 4358.795; 4413.157; 4473.979
529.135; 3830.892; 3839.364; 4788.663
529.721; 4219.940; 4265.176; 4888.577
530.306; 5706.246; 5692.157; 4775.779
530.892; 4005.827; 4010.379; 4793.906
531.478; 3935.535; 3944.129; 4956.948
532.063; 3737.188; 3717.857; 5136.936
532.649; 5187.527; 5212.601; 5336.867
533.235; 3785.275; 3771.126; 5748.092
533.820; 4818.751; 4818.498; 6456.875
534.406; 4100.205; 4093.316; 6590.167
534.991; 3791.350; 3733.466; 6179.622
535.576; 4132.123; 4062.135; 6098.691
536.162; 5753.283; 5735.876; 6441.234
536.747; 3605.673; 3554.291; 6816.224
537.333; 3825.994; 3828.641; 6889.752
537.918; 4160.263; 4117.000; 7154.280
538.503; 3891.500; 3871.982; 7150.848
539.088; 4374.191; 4380.782; 7253.308
539.673; 4015.835; 3968.285; 7625.180
540.259; 3878.797; 3912.410; 8226.793
540.844; 3421.888; 3344.988; 8745.092
541.429; 5112.575; 5059.347; 8762.553
542.014; 3559.413; 3532.353; 8871.497
542.599; 4346.632; 4319.360; 8886.008
543.184; 3676.177; 3630.535; 9079.139
543.769; 3896.719; 3913.981; 9076.182
544.354; 4025.931; 4012.844; 8354.081
544.938; 4338.000; 4321.204; 8236.809
545.523; 5073.058; 5027.020; 8222.179
546.108; 4184.462; 4054.550; 8114.082
546.693; 4139.020; 4108.587; 8535.912
547.278; 4173.052; 4139.457; 9238.322
547.862; 4165.512; 4117.526; 9034.405
548.447; 4683.836; 4645.891; 7795.011
549.031; 4038.940; 4018.619; 7485.099
549.616; 4349.913; 4261.066; 7626.308
550.201; 3945.988; 3844.341; 7627.909
550.785; 4547.354; 4549.997; 7859.125
551.370; 3673.215; 3665.475; 7990.654
551.954; 4681.995; 4625.444; 8196.468
552.538; 4591.355; 4446.382; 7959.495
553.123; 3955.306; 3906.988; 7964.826
553.707; 4085.710; 4103.584; 8515.957
554.291; 4917.167; 4790.860; 8724.024
554.876; 4659.180; 4614.459; 8524.211
555.460; 3963.577; 3811.887; 8704.456
556.044; 3954.132; 3837.671; 9141.473
556.628; 4266.178; 4167.206; 9250.197
557.212; 4871.850; 4763.270; 9444.237
557.796; 4174.096; 4094.247; 9379.783
558.380; 4482.884; 4369.859; 9353.658
558.964; 4378.818; 4287.047; 9210.310
559.548; 3732.610; 3581.494; 8475.153
560.132; 4150.357; 3969.659; 7954.084
560.716; 3860.926; 3639.371; 7489.529
561.300; 3828.879; 3564.788; 7211.952
561.884; 4716.248; 4539.303; 7141.313
562.467; 4699.034; 4470.924; 7155.386
563.051; 4433.347; 4146.721; 7323.158
563.635; 4406.775; 4171.568; 7709.114
564.219; 4490.646; 4133.181; 7678.855
564.802; 4843.171; 4376.062; 7376.187
565.386; 4662.036; 4231.112; 7054.372
565.969; 5328.845; 4842.510; 6589.196
566.553; 5865.768; 5321.269; 6279.371
567.136; 5405.041; 4831.225; 5967.930
567.720; 4901.188; 4192.718; 5660.703
568.303; 5104.349; 4339.843; 5648.615
568.887; 5075.562; 4284.771; 5618.443
569.470; 5315.347; 4318.074; 5411.875
570.053; 5655.538; 4578.652; 5149.274
570.637; 5134.137; 3843.628; 5122.798
571.220; 6009.407; 4546.856; 4957.369
571.803; 6790.760; 5279.805; 4933.018
572.386; 5607.241; 4051.093; 4840.973
572.969; 5746.525; 4061.503; 4592.886
573.552; 6078.399; 4155.778; 4348.387
574.135; 5848.954; 3762.308; 4002.290
574.718; 6121.470; 3874.809; 3654.773
575.301; 6258.194; 3892.616; 3502.288
575.884; 6394.918; 3910.424; 3349.803
576.467; 7758.688; 4728.718; 3191.403
577.050; 7844.944; 4393.952; 3062.418
577.633; 9101.857; 5242.462; 3214.200
578.216; 8256.492; 4147.896; 3284.889
578.799; 8541.302; 4101.055; 3189.777
579.381;10302.016; 5402.434; 3064.502
579.964; 9310.560; 3852.584; 2888.357
580.547;10388.792; 4300.831; 2905.760
581.129;11790.939; 4986.127; 2966.849
581.712;11642.411; 4396.280; 2887.292
582.294;11707.624; 4247.921; 2771.631
582.877;13174.200; 5456.581; 2711.602
583.459;12329.370; 4171.833; 2577.049
584.042;12437.400; 4103.670; 2454.707
584.624;12457.655; 3804.849; 2305.893
585.206;12916.594; 3320.018; 2189.546
585.789;15201.876; 3974.330; 2112.577
586.371;16912.758; 4489.773; 2153.065
586.953;17895.848; 4581.680; 2197.806
587.536;18820.393; 4976.896; 2105.489
588.118;18204.588; 4125.898; 1963.911
588.700;19553.182; 4946.311; 1843.179
589.282;20385.832; 4478.893; 1813.834
589.864;21213.646; 4248.493; 1777.620
590.446;22023.371; 3476.439; 1733.780
591.028;24627.877; 4296.936; 1676.008
591.610;26271.555; 3482.980; 1631.649
592.192;28383.797; 4292.812; 1632.362
592.774;28028.025; 3808.945; 1569.507
593.356;28972.500; 4004.826; 1524.539
593.937;28623.938; 3923.071; 1569.720
594.519;29328.410; 4728.411; 1569.049
595.101;29362.158; 3603.511; 1545.452
