gmr_right
Integration time [ms]:   3.882
Averaging Nr. [scans]: 1000
Smoothing Nr. [pixels]: 0
Data measured with spectrometer [name]: 7414430SP
Wave   ;Sample   ;Dark     ;Reference
[nm]   ;[counts] ;[counts] ;[counts] 

288.544;  126.409;   10.292;  793.890
289.143;  130.277;    4.564;  681.602
289.742;  130.784;    6.144;  828.814
290.341;  117.859;    4.396;  789.841
290.940;  108.042;    0.938;  730.702
291.538;  110.088;   -0.684;  881.108
292.137;  108.883;   -2.845;  792.581
292.736;  112.303;   -0.144;  975.101
293.335;  107.906;   -6.352;  735.086
293.934;  108.796;   -7.642;  781.677
294.532;  109.273;   -4.992; 1031.958
295.131;   95.471;   -5.478;  834.394
295.730;   95.029;   -6.549;  809.588
296.328;   94.165;   -9.558;  783.442
296.927;   94.121;   -8.118;  779.652
297.525;   94.926;   -6.908;  781.236
298.124;   84.711;   -9.195;  654.009
298.722;   90.578;   -8.198;  761.933
299.321;   88.837;   -8.817;  708.597
299.919;   85.979;   -7.716;  751.918
300.518;   81.903;  -10.745;  689.338
301.116;   84.526;   -9.647;  691.381
301.715;   84.733;  -10.828;  730.222
302.313;   84.179;   -6.087;  704.943
302.911;   78.203;   -6.824;  733.830
303.509;   84.559;   -8.807;  925.627
304.108;   82.250;   -8.198;  760.383
304.706;   81.327;   -6.218;  801.664
305.304;   75.696;   -7.185;  796.707
305.902;   82.114;   -8.568;  784.484
306.500;   76.900;   -7.737;  728.200
307.098;   76.194;   -6.026;  746.560
307.696;   73.578;   -7.176;  780.432
308.294;   74.863;   -8.656;  731.359
308.892;   77.605;   -6.838;  759.769
309.490;   72.079;   -2.596;  712.161
310.088;   70.183;   -4.485;  788.444
310.686;   76.512;   -3.907;  821.749
311.284;   71.841;   -2.806;  766.040
311.882;   69.266;   -2.845;  731.225
312.480;   65.732;   -3.274;  697.167
313.078;   67.865;   -3.645;  808.331
313.675;   70.187;   -4.997;  691.600
314.273;   64.419;   -0.894;  797.837
314.871;   62.971;   -2.854;  589.829
315.468;   62.039;   -3.644;  652.090
316.066;   64.852;   -3.947;  694.427
316.664;   58.209;   -1.824;  656.351
317.261;   63.037;    1.565;  910.128
317.859;   57.482;   -3.955;  768.735
318.456;   59.283;   -2.886;  830.096
319.054;   54.987;   -0.995;  787.828
319.651;   54.240;   -1.765;  759.928
320.249;   53.726;   -3.685;  810.188
320.846;   51.817;   -3.736;  714.286
321.443;   49.760;   -2.065;  832.135
322.041;   46.749;   -5.635;  812.315
322.638;   45.582;   -5.985;  701.456
323.235;   48.138;   -6.677;  665.683
323.833;   45.252;   -3.497;  740.354
324.430;   40.338;   -6.756;  615.900
325.027;   43.260;   -7.647;  876.855
325.624;   43.855;   -7.598;  644.532
326.221;   39.736;   -5.848;  689.717
326.818;   40.313;   -5.777;  818.332
327.415;   42.639;   -8.769;  748.828
328.012;   42.174;   -6.299;  690.585
328.609;   40.898;   -6.639;  731.389
329.206;   38.490;   -6.358;  778.621
329.803;   37.546;   -8.698;  737.841
330.400;   39.705;   -8.379;  704.260
330.997;   40.720;   -6.178;  817.147
331.594;   37.459;   -5.646;  788.185
332.191;   42.421;   -6.928;  728.722
332.787;   43.338;   -6.057;  844.463
333.384;   41.020;   -6.445;  763.093
333.981;   38.972;   -8.002;  815.687
334.578;   40.876;   -8.443;  708.378
335.174;   43.417;   -6.053;  731.469
335.771;   43.196;   -5.791;  836.456
336.367;   38.931;   -6.570;  710.631
336.964;   42.623;   -6.741;  793.266
337.561;   41.748;   -5.710;  731.112
338.157;   38.613;   -3.928;  911.916
338.754;   34.540;   -5.577;  796.589
339.350;   34.516;   -9.667;  722.493
339.946;   38.646;   -5.269;  773.135
340.543;   30.090;   -4.485;  846.136
341.139;   23.817;   -7.584;  720.836
341.735;   23.150;   -8.553;  772.593
342.332;   22.776;   -4.984;  691.472
342.928;   23.234;   -3.475;  795.394
343.524;   17.543;   -6.653;  761.684
344.120;   14.896;   -7.173;  738.562
344.716;   18.780;   -4.385;  723.717
345.313;   16.252;   -3.565;  795.342
345.909;   11.460;   -7.495;  627.336
346.505;   13.521;   -8.276;  740.247
347.101;   15.134;   -5.697;  827.864
347.697;   14.501;   -4.767;  785.398
348.293;    9.317;   -7.226;  627.244
348.889;   10.919;   -7.547;  745.914
349.485;   10.658;   -9.147;  688.205
350.081;   11.227;   -6.568;  772.592
350.676;    6.049;   -6.516;  691.606
351.272;   11.136;   -7.378;  809.530
351.868;   11.946;   -6.759;  780.497
352.464;    8.628;   -4.798;  723.932
353.059;    4.265;   -7.977;  646.017
353.655;    8.362;   -8.769;  777.063
354.251;    9.662;   -5.920;  759.845
354.846;    3.559;   -7.647;  740.646
355.442;    0.731;   -6.956;  753.071
356.038;    3.583;   -9.928;  751.708
356.633;    3.380;   -7.698;  728.594
357.229;    1.654;   -6.307;  724.757
357.824;   -0.079;   -7.647;  703.600
358.420;   -0.582;  -10.047;  679.726
359.015;    0.469;   -7.458;  695.357
359.610;    2.043;   -5.748;  763.920
360.206;   -5.650;   -9.346;  603.240
360.801;   -1.637;  -11.268;  646.503
361.396;    0.308;   -8.789;  725.975
361.992;   -3.748;   -6.347;  668.220
362.587;   -7.047;   -6.476;  670.160
363.182;   -4.779;   -9.457;  689.631
363.777;   -3.031;   -7.147;  738.242
364.372;   -3.024;   -5.507;  737.314
364.967;   -8.238;   -6.386;  680.744
365.563;   -2.884;   -7.858;  815.567
366.158;   -5.726;   -8.517;  685.161
366.753;   -5.455;   -8.728;  649.263
367.348;   -7.154;   -7.677;  746.056
367.942;   -6.697;  -10.387;  697.298
368.537;   -8.089;   -7.187;  754.245
369.132;   -7.738;   -8.587;  703.428
369.727;  -12.244;   -8.606;  638.079
370.322;  -10.064;  -10.426;  580.186
370.917;   -9.938;   -5.776;  710.646
371.511;   -7.173;   -6.007;  861.834
372.106;  -10.521;   -6.686;  776.964
372.701;  -14.104;   -9.335;  585.988
373.296;   -6.832;   -6.777;  863.135
373.890;  -12.951;   -7.546;  647.840
374.485;  -15.106;   -8.755;  691.199
375.079;  -10.600;   -9.797;  738.685
375.674;   -8.917;   -6.327;  812.970
376.268;  -13.626;   -9.046;  691.759
376.863;  -19.479;   -7.993;  580.327
377.457;  -13.103;   -9.206;  662.490
378.052;  -14.450;   -5.345;  764.884
378.646;  -15.331;   -5.605;  741.167
379.240;  -16.511;   -6.825;  721.176
379.835;  -15.062;  -10.476;  636.978
380.429;  -16.286;   -8.676;  562.557
381.023;  -15.669;   -4.945;  779.205
381.617;  -19.524;   -8.094;  680.106
382.212;  -15.562;  -10.646;  685.303
382.806;  -14.110;   -8.136;  760.690
383.400;  -18.607;   -7.855;  672.281
383.994;  -19.789;   -8.125;  664.870
384.588;  -15.183;   -7.637;  697.701
385.182;  -14.022;   -7.458;  726.624
385.776;  -16.032;   -6.277;  706.875
386.370;  -18.541;   -7.485;  681.968
386.964;  -17.326;   -9.416;  684.155
387.558;  -15.191;   -8.518;  598.360
388.152;  -18.111;   -7.096;  681.959
388.745;  -17.371;   -7.656;  814.707
389.339;  -15.143;   -8.927;  747.642
389.933;  -14.088;   -9.538;  695.370
390.527;  -15.177;   -5.857;  859.029
391.120;  -22.102;   -9.455;  595.318
391.714;  -18.269;   -9.746;  711.633
392.308;  -15.658;   -7.857;  780.253
392.901;  -19.750;   -9.106;  642.460
393.495;  -21.514;  -10.365;  595.414
394.089;  -18.696;   -9.696;  760.452
394.682;  -19.193;   -7.016;  697.188
395.275;  -20.040;   -8.466;  719.927
395.869;  -21.910;   -8.985;  667.314
396.462;  -19.585;  -11.496;  616.609
397.056;  -14.862;   -7.838;  776.621
397.649;  -20.145;   -6.895;  731.575
398.242;  -17.694;   -5.017;  712.645
398.836;  -16.337;   -8.787;  766.408
399.429;  -16.548;   -8.967;  631.041
400.022;  -21.746;   -8.815;  665.902
400.615;  -18.307;   -6.276;  805.609
401.208;  -16.215;   -8.407;  691.451
401.802;  -18.449;   -7.296;  699.329
402.395;  -19.661;   -7.585;  683.502
402.988;  -21.215;   -8.015;  696.627
403.581;  -17.326;   -9.577;  646.878
404.174;  -14.860;   -7.588;  686.568
404.767;  -17.199;   -7.906;  638.583
405.360;  -20.689;   -7.875;  621.445
405.953;  -14.272;   -8.127;  759.034
406.545;  -13.597;   -7.198;  725.342
407.138;  -18.521;   -8.916;  618.350
407.731;  -17.065;   -9.767;  613.303
408.324;  -12.982;  -10.659;  660.554
408.917;  -13.975;   -8.068;  681.864
409.509;  -16.145;   -9.837;  740.396
410.102;  -18.442;   -8.146;  643.948
410.695;  -12.491;   -7.969;  665.758
411.287;  -12.666;   -8.579;  599.821
411.880;  -13.563;   -6.968;  585.421
412.472;  -16.893;   -9.487;  613.092
413.065;  -13.930;  -10.338;  629.408
413.657;  -11.084;   -9.169;  576.678
414.250;  -11.503;  -10.119;  646.681
414.842;  -13.861;   -9.938;  676.353
415.434;  -11.039;  -10.409;  570.463
416.027;   -6.844;   -9.591;  652.196
416.619;   -9.108;   -7.379;  713.400
417.211;   -9.785;   -9.159;  599.352
417.804;   -5.273;   -9.191;  628.499
418.396;   -8.882;   -8.159;  607.643
418.988;   -7.530;   -6.960;  659.238
419.580;  -11.257;  -11.389;  568.276
420.172;   -8.900;  -13.460;  536.196
420.764;   -2.829;  -10.701;  672.482
421.356;   -5.021;   -8.961;  636.898
421.948;   -6.154;   -9.770;  677.661
422.540;   -1.126;   -8.832;  680.027
423.132;   -1.135;   -8.153;  600.641
423.724;   -4.863;   -8.481;  561.267
424.316;   -3.151;   -9.261;  621.345
424.908;    1.174;   -9.643;  591.517
425.500;    1.852;   -8.663;  647.978
426.092;    2.480;   -8.503;  648.268
426.683;    0.056;  -10.522;  684.836
427.275;    4.521;  -11.734;  641.471
427.867;    4.694;  -10.264;  668.948
428.458;    6.459;   -7.644;  732.344
429.050;    4.079;   -7.853;  680.749
429.642;    6.875;   -8.904;  743.124
430.233;    7.708;  -10.795;  569.356
430.825;    9.075;   -7.665;  724.809
431.416;    5.211;   -8.843;  698.241
432.008;   10.142;   -9.885;  651.723
432.599;   11.217;   -9.966;  656.073
433.190;    7.041;   -9.164;  637.670
433.782;    6.398;   -8.584;  590.395
434.373;   14.710;   -8.296;  884.765
434.964;   12.956;   -9.896;  602.920
435.556;   10.853;   -8.255;  634.537
436.147;   12.832;   -8.075;  758.490
436.738;   13.258;   -9.716;  701.099
437.329;   19.337;   -7.318;  721.723
437.920;   11.883;   -6.694;  666.688
438.511;   10.562;   -9.644;  564.526
439.103;   18.486;   -9.427;  623.998
439.694;   20.629;  -10.748;  681.583
440.285;   21.430;   -7.997;  764.432
440.876;   19.532;  -10.046;  845.738
441.466;   18.903;  -13.467;  575.162
442.057;   24.914;   -9.329;  665.814
442.648;   22.118;   -7.707;  746.255
443.239;   19.980;   -9.017;  620.477
443.830;   26.176;  -10.279;  704.958
444.421;   28.567;  -12.630;  655.474
445.011;   24.374;   -8.697;  693.619
445.602;   24.051;   -7.787;  743.126
446.193;   26.208;  -13.329;  488.117
446.783;   30.771;   -9.171;  640.397
447.374;   26.583;   -7.457;  692.759
447.964;   25.919;   -9.277;  713.770
448.555;   35.913;   -9.041;  822.742
449.145;   32.105;   -8.969;  662.853
449.736;   32.147;   -6.809;  803.179
450.326;   31.930;   -7.229;  713.626
450.917;   37.234;  -11.391;  675.324
451.507;   37.329;   -9.501;  600.661
452.097;   38.133;   -8.460;  746.267
452.688;   37.981;  -10.080;  742.160
453.278;   38.362;  -12.861;  566.840
453.868;   43.322;   -8.372;  793.550
454.458;   40.051;   -8.131;  651.141
455.048;   40.948;   -8.520;  711.783
455.639;   42.603;  -13.632;  567.096
456.229;   47.160;  -10.143;  710.694
456.819;   48.512;   -9.163;  751.158
457.409;   48.786;   -8.652;  773.993
457.999;   51.702;   -9.933;  737.505
458.589;   51.902;  -10.363;  686.606
459.179;   50.950;  -10.633;  717.658
459.769;   48.749;  -12.442;  627.099
460.358;   54.668;   -9.844;  797.262
460.948;   54.203;   -9.924;  689.503
461.538;   55.341;  -10.484;  660.677
462.128;   53.148;  -10.703;  664.934
462.717;   60.705;  -11.486;  710.326
463.307;   64.106;  -10.767;  705.846
463.897;   59.239;   -8.814;  656.942
464.486;   58.457;   -8.182;  837.128
465.076;   63.887;   -9.985;  733.776
465.666;   66.957;  -10.447;  652.900
466.255;   64.302;   -7.754;  785.651
466.845;   62.851;  -10.884;  666.749
467.434;   67.241;  -12.525;  725.873
468.023;   67.423;  -11.456;  658.357
468.613;   64.244;   -9.173;  713.946
469.202;   68.701;   -9.306;  646.507
469.791;   73.939;   -8.917;  737.811
470.381;   76.340;   -9.657;  742.813
470.970;   76.100;   -9.947;  711.099
471.559;   74.766;   -9.256;  733.291
472.148;   77.727;  -13.397;  675.737
472.738;   80.820;   -9.928;  765.466
473.327;   79.679;  -10.897;  637.529
473.916;   79.548;   -8.526;  737.446
474.505;   84.239;  -11.078;  751.703
475.094;   88.496;   -9.559;  806.570
475.683;   87.567;   -8.838;  797.699
476.272;   87.583;  -10.198;  730.632
476.861;   91.047;  -11.489;  706.754
477.449;   97.017;  -10.721;  728.487
478.038;   91.505;   -9.818;  692.513
478.627;   92.211;   -9.887;  714.852
479.216;   99.239;  -10.030;  769.441
479.805;  102.553;   -9.401;  783.375
480.393;  101.894;   -5.739; 1008.945
480.982;  100.909;   -7.838;  874.501
481.571;  107.683;   -9.111;  858.333
482.159;  108.703;  -10.601;  705.386
482.748;  108.395;   -8.500;  821.385
483.336;  111.650;   -9.241;  858.209
483.925;  113.990;  -10.440;  774.373
484.513;  120.791;  -11.063;  758.962
485.102;  116.965;   -9.540;  810.965
485.690;  126.006;   -6.742; 1011.050
486.278;  129.014;   -8.442;  979.329
486.867;  128.436;  -10.472;  809.662
487.455;  130.826;   -8.811;  898.229
488.043;  131.734;  -10.721;  748.361
488.631;  141.437;  -10.393; 1005.079
489.220;  145.223;  -10.843;  908.626
489.808;  144.867;  -10.572;  741.415
490.396;  153.296;  -10.482;  914.645
490.984;  159.135;  -11.542;  830.161
491.572;  171.307;   -8.463;  940.315
492.160;  176.296;   -8.491;  919.081
492.748;  188.537;   -9.681;  884.341
493.336;  211.434;  -10.493; 1019.693
493.924;  239.115;   -9.354;  958.077
494.512;  271.620;   -9.132; 1066.638
495.100;  316.668;   -9.001; 1103.280
495.687;  377.034;  -11.924; 1206.373
496.275;  461.166;  -11.193; 1150.796
496.863;  543.501;   -9.241; 1281.171
497.451;  646.578;  -11.341; 1386.805
498.038;  780.330;  -11.364; 1556.729
498.626;  898.550;   -8.104; 1741.407
499.214; 1084.727;   -8.842; 2016.609
499.801; 1341.749;  -10.112; 2220.633
500.389; 1559.711;  -11.953; 2312.494
500.976; 1764.129;  -10.023; 2744.849
501.564; 2040.269;   -8.662; 3148.565
502.151; 2406.246;  -10.531; 3515.999
502.738; 2825.058;  -13.853; 3971.274
503.326; 3388.182;  -10.794; 4403.796
503.913; 3839.781;   -8.663; 5161.749
504.500; 4517.314;  -10.172; 5986.420
505.088; 5475.989;  -13.472; 6381.201
505.675; 6029.959;  -10.924; 6925.547
506.262; 6084.092;   -8.551; 7619.060
506.849; 6616.950;  -10.523; 8733.969
507.436; 7629.538;  -10.834; 9790.121
508.023; 8092.100;   -9.093; 9985.472
508.610; 8346.479;  -10.073;10434.618
509.197; 9518.033;   -9.500;11198.435
509.784;11408.297;  -13.242;12391.194
510.371;12354.091;  -10.964;13603.713
510.958;12871.005;   -9.772;14426.586
511.545;13282.427;   -7.842;15243.775
512.132;13295.230;  -12.184;15945.876
512.719;14665.767;   -9.733;16340.369
513.305;17596.486;   -9.172;18011.766
513.892;18945.279;   -9.581;19754.971
514.479;19985.023;  -10.253;20967.805
515.066;20852.271;   -8.183;22299.793
515.652;21840.297;   -9.253;22908.660
516.239;23476.783;   -9.412;23798.875
516.825;24769.330;  -11.153;25567.275
517.412;24457.020;  -10.263;28154.959
517.998;24222.826;   -8.802;28344.111
518.585;24712.078;  -10.401;27134.219
519.171;24576.484;  -12.744;27268.576
519.758;25756.082;  -11.793;28964.129
520.344;28852.627;   -8.912;30664.494
520.930;32151.920;  -10.901;32550.605
521.516;32434.918;  -12.034;35422.895
522.103;33166.113;  -10.473;38280.004
522.689;34460.961;   -8.311;37835.117
523.275;35905.137;  -10.691;37288.613
523.861;37188.375;  -11.193;37281.395
524.447;34714.289;  -11.484;37846.949
525.033;34825.445;   -7.702;38321.949
525.619;35091.930;  -11.241;38579.285
526.205;35270.629;  -12.152;40622.875
526.791;36137.465;  -11.423;42258.836
527.377;36535.297;   -7.981;42966.902
527.963;37020.887;   -9.450;42018.949
528.549;36938.922;  -11.351;42476.828
529.135;36984.156;  -10.202;41854.852
529.721;38420.434;   -8.672;41237.711
530.306;37926.852;   -9.111;41259.445
530.892;39565.434;  -11.252;41506.047
531.478;42711.664;  -10.432;43559.613
532.063;44618.504;  -10.721;47695.563
532.649;45602.746;   -7.450;50808.324
533.235;47061.121;  -11.811;51787.500
533.820;45954.434;   -9.383;52145.035
534.406;43563.422;   -9.400;51133.488
534.991;42935.551;   -8.861;49996.805
535.576;44420.605;  -10.612;48882.852
536.162;42517.410;   -7.322;46942.285
536.747;41636.121;   -9.360;45711.746
537.333;42840.836;  -10.450;48510.180
537.918;45962.391;  -12.610;50439.891
538.503;46656.910;  -12.132;50863.711
539.088;43375.766;  -10.831;50906.922
539.673;42313.574;  -11.220;52621.965
540.259;46435.164;  -11.481;52368.094
540.844;46956.824;  -11.462;50879.109
541.429;47842.977;   -7.869;52077.777
542.014;46427.148;  -11.859;52716.695
542.599;44667.672;  -11.061;52363.281
543.184;45079.516;  -12.300;53187.137
543.769;46070.652;   -9.369;54697.605
544.354;47433.578;  -12.020;53913.914
544.938;43302.797;  -10.350;49680.164
545.523;39915.785;  -10.841;47386.277
546.108;42734.512;   -8.579;49151.949
546.693;45436.641;   -8.818;51384.637
547.278;47036.012;  -11.331;51853.254
547.862;46043.082;  -10.292;51173.750
548.447;44497.820;   -8.349;51691.395
549.031;44194.891;  -10.838;52456.703
549.616;45594.395;  -11.681;52714.516
550.201;47942.859;  -11.140;52414.598
550.785;46201.363;   -8.649;52355.059
551.370;45842.227;  -11.889;54589.453
551.954;47012.379;  -11.239;58267.348
552.538;48736.398;   -8.850;59062.176
553.123;51167.816;  -10.829;58115.285
553.707;52479.168;   -8.887;56556.285
554.291;49200.875;  -10.430;56201.668
554.876;47179.848;   -9.799;55335.762
555.460;44744.293;  -10.018;54155.703
556.044;44157.500;   -7.307;53721.484
556.628;47389.730;  -12.229;53731.016
557.212;48028.441;   -9.820;54312.531
557.796;45910.465;   -9.109;53797.773
558.380;43057.496;   -9.707;56145.984
558.964;44350.066;  -10.980;57277.930
559.548;47813.227;  -12.010;56459.641
560.132;48153.230;   -7.928;54434.543
560.716;50196.422;  -10.247;54800.617
561.300;50219.363;  -11.250;57606.945
561.884;47538.977;  -10.568;58972.445
562.467;45521.938;   -9.727;57327.570
563.051;42011.047;  -11.847;54962.434
563.635;41916.418;  -10.747;52594.473
564.219;42553.410;  -13.108;50610.410
564.802;41404.430;  -11.417;49551.180
565.386;40345.180;  -10.457;48370.953
565.969;42851.652;   -8.959;48178.871
566.553;43341.895;  -10.328;49957.305
567.136;43623.391;  -10.257;50369.594
567.720;43254.461;  -10.186;49492.004
568.303;42160.691;  -10.027;50616.352
568.887;42646.820;  -10.397;50727.148
569.470;44208.195;   -8.185;51698.379
570.053;42933.852;  -11.596;52122.078
570.637;41170.348;  -11.378;52536.438
571.220;41109.977;   -9.138;51186.098
571.803;40067.828;   -7.675;51032.762
572.386;37853.320;   -8.976;49609.887
572.969;38322.551;  -12.477;48285.926
573.552;39002.164;   -9.767;47624.285
574.135;37835.664;   -8.175;45498.641
574.718;32989.137;  -11.096;41970.434
575.301;32265.059;  -11.966;41447.137
575.884;31540.980;  -12.836;40923.836
576.467;37082.234;   -9.116;45267.723
577.050;39343.957;  -10.536;48175.543
577.633;39223.750;  -11.027;47729.328
578.216;37511.609;   -9.946;47579.793
578.799;36685.375;   -9.645;47820.996
579.381;36644.402;   -9.446;48115.551
579.964;37037.168;  -12.217;47333.766
580.547;37539.426;  -10.586;46668.969
581.129;36953.387;   -8.374;44466.141
581.712;35360.836;  -10.434;44164.922
582.294;34416.008;  -10.896;46477.855
582.877;35295.086;   -8.906;48244.254
583.459;36709.223;   -9.994;47437.895
584.042;36463.008;  -10.084;46943.219
584.624;34931.609;  -13.534;46792.227
585.206;33592.836;  -12.716;46557.250
585.789;34703.688;  -11.614;45793.773
586.371;35335.418;  -10.203;43836.391
586.953;33753.355;  -10.314;42972.492
587.536;31827.928;   -9.776;42487.211
588.118;32377.893;   -9.821;42086.414
588.700;33599.027;  -10.073;43389.930
589.282;34939.582;  -12.395;43646.039
589.864;33621.445;  -11.514;43438.109
590.446;34134.402;  -10.803;43151.926
591.028;35637.297;  -11.043;42781.867
591.610;35422.078;  -13.244;42839.098
592.192;32097.908;  -11.095;42820.402
592.774;29544.498;  -10.823;40724.277
593.356;28884.795;  -11.052;39874.789
593.937;30926.709;  -11.664;39980.648
594.519;33196.105;  -10.454;42069.633
595.101;33636.461;  -10.322;42976.031
