
Integration time [ms]:   3.276
Averaging Nr. [scans]: 1000
Smoothing Nr. [pixels]: 0
Data measured with spectrometer [name]: 7414430SP
Wave   ;Sample   ;Dark     ;Reference
[nm]   ;[counts] ;[counts] ;[counts] 

288.544;  151.430;    7.793;  793.890
289.143;  155.838;    7.462;  681.602
289.742;  154.799;    8.602;  828.814
290.341;  140.028;    1.321;  789.841
290.940;  130.327;   -0.709;  730.702
291.538;  131.595;    0.881;  881.108
292.137;  130.253;    0.122;  792.581
292.736;  135.822;   -1.929;  975.101
293.335;  131.426;   -8.229;  735.086
293.934;  132.190;   -5.279;  781.677
294.532;  130.659;   -1.369; 1031.958
295.131;  116.089;   -7.641;  834.394
295.730;  116.691;   -8.420;  809.588
296.328;  115.274;   -5.611;  783.442
296.927;  116.560;   -5.781;  779.652
297.525;  117.190;   -6.361;  781.236
298.124;  107.444;  -11.382;  654.009
298.722;  111.501;   -7.641;  761.933
299.321;  109.471;   -6.811;  708.597
299.919;  108.165;   -6.991;  751.918
300.518;  103.963;  -10.362;  689.338
301.116;  105.775;   -9.581;  691.381
301.715;  105.624;   -4.891;  730.222
302.313;  104.755;   -8.801;  704.943
302.911;   99.795;   -8.522;  733.830
303.509;  105.300;   -6.171;  925.627
304.108;  103.584;   -7.311;  760.383
304.706;  102.796;   -8.321;  801.664
305.304;   96.620;  -10.222;  796.707
305.902;  102.364;   -6.021;  784.484
306.500;   98.563;   -4.971;  728.200
307.098;   96.379;   -7.061;  746.560
307.696;   95.346;   -8.801;  780.432
308.294;   95.805;   -6.411;  731.359
308.892;   97.242;   -2.901;  759.769
309.490;   92.289;   -5.041;  712.161
310.088;   91.839;   -5.002;  788.444
310.686;   95.789;   -2.041;  821.749
311.284;   92.062;   -2.351;  766.040
311.882;   89.783;   -4.422;  731.225
312.480;   85.648;   -4.192;  697.167
313.078;   87.900;   -1.172;  808.331
313.675;   87.931;   -2.601;  691.600
314.273;   83.782;   -1.312;  797.837
314.871;   82.979;   -3.942;  589.829
315.468;   81.229;   -2.802;  652.090
316.066;   83.293;   -0.701;  694.427
316.664;   76.359;   -4.362;  656.351
317.261;   80.245;   -2.872;  910.128
317.859;   76.293;   -2.022;  768.735
318.456;   76.902;   -0.531;  830.096
319.054;   71.799;   -3.912;  787.828
319.651;   71.607;   -4.752;  759.928
320.249;   70.503;   -2.602;  810.188
320.846;   67.987;   -0.821;  714.286
321.443;   65.273;   -4.642;  832.135
322.041;   62.640;   -5.002;  812.315
322.638;   60.982;   -3.982;  701.456
323.235;   61.391;   -3.411;  665.683
323.833;   59.483;   -7.361;  740.354
324.430;   55.171;   -8.611;  615.900
325.027;   55.617;   -4.061;  876.855
325.624;   54.867;   -4.031;  644.532
326.221;   52.268;   -7.481;  689.717
326.818;   51.875;   -5.281;  818.332
327.415;   55.155;   -7.460;  748.828
328.012;   54.233;   -5.510;  690.585
328.609;   53.170;   -7.880;  731.389
329.206;   51.197;   -8.331;  778.621
329.803;   51.349;   -5.121;  737.841
330.400;   53.813;   -4.510;  704.260
330.997;   55.455;   -6.441;  817.147
331.594;   53.735;   -8.831;  788.185
332.191;   59.532;   -7.621;  728.722
332.787;   61.940;   -4.591;  844.463
333.384;   61.024;   -7.412;  763.093
333.981;   59.325;   -8.293;  815.687
334.578;   62.433;   -7.052;  708.378
335.174;   65.823;   -3.102;  731.469
335.771;   64.026;   -5.943;  836.456
336.367;   61.473;   -7.393;  710.631
336.964;   65.070;   -4.063;  793.266
337.561;   62.396;   -3.813;  731.112
338.157;   58.469;   -4.654;  911.916
338.754;   56.338;   -7.934;  796.589
339.350;   54.234;   -4.414;  722.493
339.946;   56.847;   -4.664;  773.135
340.543;   48.261;   -6.375;  846.136
341.139;   43.004;   -9.815;  720.836
341.735;   40.964;   -4.526;  772.593
342.332;   39.499;   -4.895;  691.472
342.928;   39.569;   -4.295;  795.394
343.524;   34.171;   -5.476;  761.684
344.120;   31.419;   -5.856;  738.562
344.716;   33.785;   -2.155;  723.717
345.313;   31.855;   -6.275;  795.342
345.909;   27.093;   -8.815;  627.336
346.505;   28.357;   -5.305;  740.247
347.101;   28.509;   -2.674;  827.864
347.697;   29.897;   -4.344;  785.398
348.293;   23.988;   -9.975;  627.244
348.889;   25.063;   -5.774;  745.914
349.485;   23.614;   -5.004;  688.205
350.081;   24.500;   -4.704;  772.592
350.676;   19.589;   -6.635;  691.606
351.272;   24.904;   -4.504;  809.530
351.868;   24.070;   -3.914;  780.497
352.464;   20.725;   -9.044;  723.932
353.059;   17.487;   -8.314;  646.017
353.655;   20.890;   -7.024;  777.063
354.251;   21.855;   -5.343;  759.845
354.846;   16.146;   -8.604;  740.646
355.442;   13.779;   -6.945;  753.071
356.038;   17.066;   -7.564;  751.708
356.633;   15.815;   -5.814;  728.594
357.229;   13.325;   -7.364;  724.757
357.824;   12.964;   -8.024;  703.600
358.420;   12.074;   -9.384;  679.726
359.015;   12.410;   -5.104;  695.357
359.610;   13.119;   -6.854;  763.920
360.206;    7.698;  -10.185;  603.240
360.801;   10.036;   -7.054;  646.503
361.396;   11.762;   -5.034;  725.975
361.992;    7.391;   -8.284;  668.220
362.587;    4.085;   -8.625;  670.160
363.182;    7.292;   -7.674;  689.631
363.777;    8.015;   -5.164;  738.242
364.372;    7.477;   -8.604;  737.314
364.967;    3.945;   -9.055;  680.744
365.563;    7.667;   -6.114;  815.567
366.158;    5.741;   -5.814;  685.161
366.753;    5.722;   -7.854;  649.263
367.348;    4.141;   -7.804;  746.056
367.942;    4.560;   -7.954;  697.298
368.537;    3.064;   -4.984;  754.245
369.132;    3.461;   -8.564;  703.428
369.727;   -1.088;   -8.855;  638.079
370.322;    0.166;   -6.245;  580.186
370.917;    0.293;   -6.425;  710.646
371.511;    3.040;   -6.294;  861.834
372.106;   -0.300;   -7.685;  776.964
372.701;   -3.780;   -7.335;  585.988
373.296;    2.064;   -4.564;  863.135
373.890;   -2.929;  -10.235;  647.840
374.485;   -4.059;   -7.885;  691.199
375.079;   -1.017;   -7.324;  738.685
375.674;    0.336;   -3.494;  812.970
376.268;   -3.903;   -8.525;  691.759
376.863;   -9.677;  -10.086;  580.327
377.457;   -3.152;   -7.025;  662.490
378.052;   -5.137;   -3.585;  764.884
378.646;   -6.171;   -7.595;  741.167
379.240;   -6.192;   -8.335;  721.176
379.835;   -5.182;   -5.785;  636.978
380.429;   -7.514;   -4.335;  562.557
381.023;   -7.844;   -6.805;  779.205
381.617;   -8.910;   -9.195;  680.106
382.212;   -6.526;   -6.905;  685.303
382.806;   -5.183;   -3.745;  760.690
383.400;   -9.936;   -7.745;  672.281
383.994;  -10.509;   -9.765;  664.870
384.588;   -6.606;   -6.564;  697.701
385.182;   -5.345;   -5.344;  726.624
385.776;   -6.724;   -8.514;  706.875
386.370;  -10.290;   -9.555;  681.968
386.964;   -8.379;   -8.715;  684.155
387.558;   -6.998;   -6.174;  598.360
388.152;  -10.739;   -8.725;  681.959
388.745;   -8.974;   -7.965;  814.707
389.339;   -6.813;   -5.924;  747.642
389.933;   -5.590;   -5.524;  695.370
390.527;   -7.412;   -7.114;  859.029
391.120;  -13.027;  -10.725;  595.318
391.714;  -10.456;   -8.035;  711.633
392.308;   -7.410;   -3.574;  780.253
392.901;  -11.025;   -7.245;  642.460
393.495;  -12.402;   -9.285;  595.414
394.089;  -10.397;   -5.895;  760.452
394.682;  -11.296;   -4.295;  697.188
395.275;  -11.378;   -9.875;  719.927
395.869;  -13.038;   -8.485;  667.314
396.462;  -11.319;   -7.455;  616.609
397.056;   -7.983;   -5.424;  776.621
397.649;  -11.858;   -6.605;  731.575
398.242;   -9.842;   -8.224;  712.645
398.836;   -8.368;   -7.474;  766.408
399.429;   -9.729;   -7.094;  631.041
400.022;  -13.414;   -9.475;  665.902
400.615;  -10.669;   -7.145;  805.609
401.208;   -8.316;   -7.174;  691.451
401.802;  -11.162;   -5.515;  699.329
402.395;  -12.434;   -9.875;  683.502
402.988;  -13.288;   -8.845;  696.627
403.581;  -10.102;   -8.874;  646.878
404.174;   -7.864;   -5.324;  686.568
404.767;  -10.469;   -9.575;  638.583
405.360;  -12.305;  -10.965;  621.445
405.953;   -7.222;   -8.764;  759.034
406.545;   -6.972;   -7.514;  725.342
407.138;  -11.584;  -10.025;  618.350
407.731;   -9.816;  -10.034;  613.303
408.324;   -5.767;   -9.374;  660.554
408.917;   -6.533;   -6.534;  681.864
409.509;   -8.817;   -8.004;  740.396
410.102;  -10.515;   -9.875;  643.948
410.695;   -3.849;   -8.604;  665.758
411.287;   -5.633;   -6.794;  599.821
411.880;   -6.471;   -9.334;  585.421
412.472;   -9.707;  -10.254;  613.092
413.065;   -6.868;   -6.714;  629.408
413.657;   -5.652;   -7.234;  576.678
414.250;   -4.115;  -10.544;  646.681
414.842;   -5.971;   -9.744;  676.353
415.434;   -4.384;   -6.994;  570.463
416.027;   -0.180;   -5.893;  652.196
416.619;   -1.908;   -7.264;  713.400
417.211;   -2.771;  -10.374;  599.352
417.804;    1.733;   -7.993;  628.499
418.396;   -2.858;   -7.234;  607.643
418.988;   -0.879;   -9.443;  659.238
419.580;   -4.260;  -10.724;  568.276
420.172;   -1.758;  -10.323;  536.196
420.764;    2.922;   -8.793;  672.482
421.356;    1.236;  -11.143;  636.898
421.948;    0.126;   -8.293;  677.661
422.540;    4.996;   -7.893;  680.027
423.132;    4.720;   -7.082;  600.641
423.724;    1.058;   -8.653;  561.267
424.316;    2.956;  -10.213;  621.345
424.908;    6.285;   -9.762;  591.517
425.500;    7.664;   -5.572;  647.978
426.092;    8.232;   -8.422;  648.268
426.683;    6.566;   -9.283;  684.836
427.275;    9.695;   -7.852;  641.471
427.867;   10.824;   -5.272;  668.948
428.458;   11.268;   -7.682;  732.344
429.050;   10.571;  -10.612;  680.749
429.642;   13.354;   -9.882;  743.124
430.233;   13.052;   -6.962;  569.356
430.825;   14.352;   -6.842;  724.809
431.416;   11.820;   -9.672;  698.241
432.008;   16.293;   -6.552;  651.723
432.599;   15.589;   -6.891;  656.073
433.190;   13.247;  -10.912;  637.670
433.782;   12.364;  -11.172;  590.395
434.373;   20.160;   -6.061;  884.765
434.964;   18.474;   -8.251;  602.920
435.556;   15.922;   -9.722;  634.537
436.147;   19.526;   -9.082;  758.490
436.738;   19.355;   -8.041;  701.099
437.329;   24.198;   -7.341;  721.723
437.920;   16.963;   -8.162;  666.688
438.511;   17.197;  -11.802;  564.526
439.103;   24.393;  -10.191;  623.998
439.694;   25.939;   -7.601;  681.583
440.285;   26.658;   -8.541;  764.432
440.876;   25.103;   -9.751;  845.738
441.466;   25.120;   -9.401;  575.162
442.057;   29.066;   -7.760;  665.814
442.648;   28.307;   -9.971;  746.255
443.239;   27.220;  -11.001;  620.477
443.830;   31.561;   -7.990;  704.958
444.421;   33.612;   -7.910;  655.474
445.011;   30.056;   -8.131;  693.619
445.602;   30.274;   -7.111;  743.126
446.193;   31.578;  -10.920;  488.117
446.783;   36.412;   -6.500;  640.397
447.374;   31.987;   -8.671;  692.759
447.964;   32.750;  -10.781;  713.770
448.555;   40.031;   -9.650;  822.742
449.145;   37.120;   -8.660;  662.853
449.736;   38.618;   -8.990;  803.179
450.326;   38.269;   -9.500;  713.626
450.917;   44.148;   -8.680;  675.324
451.507;   43.022;   -7.520;  600.661
452.097;   42.644;   -8.590;  746.267
452.688;   43.916;  -11.340;  742.160
453.278;   44.279;  -10.100;  566.840
453.868;   48.840;   -6.019;  793.550
454.458;   45.402;   -9.440;  651.141
455.048;   46.909;  -10.560;  711.783
455.639;   48.573;  -11.799;  567.096
456.229;   51.924;   -6.899;  710.694
456.819;   53.654;   -7.389;  751.158
457.409;   54.528;  -11.119;  773.993
457.999;   57.010;   -9.289;  737.505
458.589;   56.758;   -6.139;  686.606
459.179;   57.012;   -8.729;  717.658
459.769;   54.568;   -9.789;  627.099
460.358;   60.652;  -10.259;  797.262
460.948;   58.920;   -7.299;  689.503
461.538;   61.455;  -10.289;  660.677
462.128;   59.614;  -11.269;  664.934
462.717;   66.125;   -9.368;  710.326
463.307;   68.994;   -7.908;  705.846
463.897;   65.032;   -9.599;  656.942
464.486;   64.089;   -9.769;  837.128
465.076;   68.973;   -8.048;  733.776
465.666;   71.792;   -9.358;  652.900
466.255;   70.446;   -7.919;  785.651
466.845;   69.377;  -11.689;  666.749
467.434;   72.811;   -7.818;  725.873
468.023;   73.546;   -7.678;  658.357
468.613;   71.543;  -10.939;  713.946
469.202;   76.099;  -10.118;  646.507
469.791;   79.295;   -9.108;  737.811
470.381;   81.329;   -6.058;  742.813
470.970;   81.564;  -10.428;  711.099
471.559;   81.261;  -10.268;  733.291
472.148;   84.299;   -8.448;  675.737
472.738;   86.690;   -6.917;  765.466
473.327;   87.300;  -11.978;  637.529
473.916;   86.743;  -11.888;  737.446
474.505;   90.347;   -9.437;  751.703
475.094;   93.814;   -6.747;  806.570
475.683;   92.576;   -9.367;  797.699
476.272;   94.716;  -12.637;  730.632
476.861;   97.031;  -10.027;  706.754
477.449;  103.741;   -8.716;  728.487
478.038;   97.607;   -9.577;  692.513
478.627;   99.376;   -9.718;  714.852
479.216;  106.773;   -8.947;  769.441
479.805;  109.233;   -6.256;  783.375
480.393;  107.951;   -7.937; 1008.945
480.982;  107.181;   -7.717;  874.501
481.571;  114.266;   -9.266;  858.333
482.159;  115.159;   -7.636;  705.386
482.748;  114.348;   -9.667;  821.385
483.336;  119.765;  -10.376;  858.209
483.925;  120.019;   -7.147;  774.373
484.513;  127.177;   -7.996;  758.962
485.102;  123.864;  -10.027;  810.965
485.690;  132.867;  -10.446; 1011.050
486.278;  135.033;   -8.446;  979.329
486.867;  135.553;   -6.356;  809.662
487.455;  137.738;   -9.136;  898.229
488.043;  139.437;  -10.646;  748.361
488.631;  148.314;   -7.456; 1005.079
489.220;  152.429;   -6.636;  908.626
489.808;  152.768;  -11.036;  741.415
490.396;  160.560;  -10.246;  914.645
490.984;  167.010;   -8.556;  830.161
491.572;  177.343;   -5.886;  940.315
492.160;  183.458;   -9.486;  919.081
492.748;  197.578;  -10.976;  884.341
493.336;  220.703;   -8.776; 1019.693
493.924;  247.431;   -5.465;  958.077
494.512;  278.605;   -9.986; 1066.638
495.100;  317.644;  -10.636; 1103.280
495.687;  376.689;  -10.885; 1206.373
496.275;  444.194;   -8.126; 1150.796
496.863;  518.353;  -10.586; 1281.171
497.451;  624.408;  -11.926; 1386.805
498.038;  766.693;  -10.885; 1556.729
498.626;  884.258;   -6.315; 1741.407
499.214; 1047.391;   -7.326; 2016.609
499.801; 1262.731;  -11.906; 2220.633
500.389; 1516.066;  -10.466; 2312.494
500.976; 1833.151;   -5.236; 2744.849
501.564; 2301.797;   -8.936; 3148.565
502.151; 2681.860;  -13.176; 3515.999
502.738; 3123.852;  -10.646; 3971.274
503.326; 3556.792;   -9.525; 4403.796
503.913; 3995.849;  -10.856; 5161.749
504.500; 4411.183;  -11.586; 5986.420
505.088; 4811.042;  -10.336; 6381.201
505.675; 5395.703;   -6.355; 6925.547
506.262; 6134.786;   -9.046; 7619.060
506.849; 6920.271;  -10.416; 8733.969
507.436; 7503.204;  -10.305; 9790.121
508.023; 8124.241;   -5.496; 9985.472
508.610; 8362.242;   -7.856;10434.618
509.197; 8995.752;  -10.097;11198.435
509.784;10446.836;  -10.886;12391.194
510.371;11732.005;   -9.315;13603.713
510.958;12525.310;   -9.936;14426.586
511.545;13247.325;   -9.326;15243.775
512.132;14167.970;  -10.075;15945.876
512.719;14725.995;   -7.796;16340.369
513.305;15930.362;  -10.606;18011.766
513.892;16716.199;  -11.486;19754.971
514.479;17958.697;   -9.126;20967.805
515.066;19523.145;   -6.026;22299.793
515.652;21316.629;   -8.466;22908.660
516.239;22662.578;  -10.886;23798.875
516.825;23497.051;  -11.496;25567.275
517.412;24582.701;   -5.796;28154.959
517.998;25501.137;  -10.506;28344.111
518.585;25448.588;  -10.076;27134.219
519.171;25984.119;   -8.315;27268.576
519.758;27981.467;   -8.596;28964.129
520.344;30205.320;   -8.466;30664.494
520.930;29852.270;  -11.006;32550.605
521.516;30845.943;  -10.495;35422.895
522.103;32825.156;   -5.526;38280.004
522.689;33483.105;   -8.746;37835.117
523.275;33019.090;  -11.376;37288.613
523.861;34742.000;  -11.156;37281.395
524.447;36707.066;   -8.135;37846.949
525.033;36559.992;   -7.896;38321.949
525.619;36799.969;  -12.476;38579.285
526.205;38227.832;   -9.516;40622.875
526.791;41317.609;   -6.926;42258.836
527.377;41213.281;   -8.346;42966.902
527.963;42131.758;   -8.717;42018.949
528.549;41460.398;  -11.016;42476.828
529.135;40107.059;   -8.536;41854.852
529.721;38884.391;   -9.666;41237.711
530.306;38170.895;  -10.066;41259.445
530.892;37949.258;  -11.356;41506.047
531.478;39100.473;   -6.596;43559.613
532.063;42768.820;   -8.836;47695.563
532.649;44117.535;  -10.047;50808.324
533.235;44566.660;   -9.746;51787.500
533.820;44562.223;   -6.566;52145.035
534.406;45898.563;  -10.817;51133.488
534.991;45895.207;   -9.416;49996.805
535.576;44113.773;   -9.036;48882.852
536.162;44901.277;   -6.156;46942.285
536.747;46279.711;  -11.607;45711.746
537.333;49070.828;  -11.787;48510.180
537.918;52094.539;  -12.437;50439.891
538.503;51648.754;   -7.196;50863.711
539.088;48153.719;  -10.556;50906.922
539.673;48138.477;   -8.767;52621.965
540.259;48893.055;  -10.026;52368.094
540.844;46188.301;   -7.416;50879.109
541.429;48030.977;   -9.467;52077.777
542.014;50237.145;   -9.527;52716.695
542.599;49148.746;   -9.946;52363.281
543.184;45792.008;   -7.927;53187.137
543.769;46822.805;   -9.297;54697.605
544.354;47142.520;  -10.127;53913.914
544.938;45699.586;   -9.267;49680.164
545.523;47416.266;   -6.506;47386.277
546.108;50348.879;   -9.787;49151.949
546.693;52368.027;  -11.587;51384.637
547.278;52707.445;  -10.986;51853.254
547.862;49708.117;   -8.206;51173.750
548.447;45023.547;  -10.067;51691.395
549.031;44060.359;   -9.637;52456.703
549.616;48690.852;   -9.926;52714.516
550.201;48557.070;   -6.347;52414.598
550.785;49912.840;   -7.917;52355.059
551.370;49103.047;  -10.867;54589.453
551.954;48550.379;   -9.047;58267.348
552.538;49463.660;   -7.827;59062.176
553.123;47912.707;  -10.287;58115.285
553.707;45530.934;  -12.178;56556.285
554.291;47100.805;   -8.717;56201.668
554.876;50491.344;   -7.457;55335.762
555.460;50711.656;  -10.387;54155.703
556.044;50548.516;   -9.618;53721.484
556.628;48043.434;  -11.567;53731.016
557.212;46757.371;   -8.097;54312.531
557.796;45773.074;  -11.077;53797.773
558.380;46001.066;  -11.108;56145.984
558.964;46029.641;   -9.057;57277.930
559.548;46958.547;   -6.977;56459.641
560.132;45000.086;  -11.457;54434.543
560.716;43318.227;  -11.378;54800.617
561.300;44536.141;   -9.577;57606.945
561.884;45696.359;   -7.127;58972.445
562.467;43475.637;   -7.118;57327.570
563.051;42615.113;  -13.358;54962.434
563.635;44308.348;  -10.178;52594.473
564.219;45150.703;   -7.837;50610.410
564.802;45836.652;  -11.398;49551.180
565.386;45250.938;  -12.788;48370.953
565.969;44527.250;   -9.077;48178.871
566.553;43270.906;   -6.207;49957.305
567.136;44308.816;   -8.568;50369.594
567.720;41106.492;  -11.868;49492.004
568.303;38967.121;   -8.268;50616.352
568.887;38946.559;   -8.698;50727.148
569.470;39643.922;   -6.808;51698.379
570.053;38862.102;  -13.188;52122.078
570.637;36221.957;  -12.037;52536.438
571.220;35801.766;   -8.577;51186.098
571.803;36920.656;   -8.498;51032.762
572.386;39147.184;  -10.498;49609.887
572.969;41694.527;   -9.388;48285.926
573.552;40131.395;   -8.338;47624.285
574.135;38420.406;   -8.518;45498.641
574.718;35823.633;  -13.628;41970.434
575.301;35174.391;  -10.893;41447.137
575.884;34525.152;   -8.158;40923.836
576.467;35780.430;  -10.328;45267.723
577.050;37305.977;  -13.058;48175.543
577.633;38278.344;   -9.458;47729.328
578.216;37483.367;   -8.928;47579.793
578.799;36693.316;   -9.358;47820.996
579.381;35690.152;  -11.388;48115.551
579.964;33517.352;  -11.718;47333.766
580.547;35692.020;   -8.588;46668.969
581.129;36555.566;   -8.859;44466.141
581.712;37354.098;  -10.729;44164.922
582.294;37691.645;  -11.118;46477.855
582.877;37755.367;   -5.218;48244.254
583.459;36073.461;   -8.679;47437.895
584.042;33874.184;  -10.709;46943.219
584.624;33630.000;  -11.669;46792.227
585.206;33484.906;   -8.218;46557.250
585.789;33881.242;  -10.569;45793.773
586.371;36190.570;  -11.859;43836.391
586.953;36799.832;  -10.719;42972.492
587.536;37674.891;   -7.198;42487.211
588.118;38300.621;   -8.720;42086.414
588.700;34229.836;  -10.439;43389.930
589.282;33186.434;   -9.198;43646.039
589.864;34308.508;   -9.199;43438.109
590.446;35621.074;  -11.319;43151.926
591.028;35416.438;  -11.159;42781.867
591.610;34046.680;  -11.779;42839.098
592.192;31242.672;   -7.668;42820.402
592.774;29948.137;  -11.949;40724.277
593.356;28975.338;  -12.129;39874.789
593.937;27970.193;  -10.669;39980.648
594.519;30259.141;   -6.509;42069.633
595.101;32362.008;  -10.849;42976.031
