
Integration time [ms]:   3.276
Averaging Nr. [scans]: 1000
Smoothing Nr. [pixels]: 0
Data measured with spectrometer [name]: 7414430SP
Wave   ;Sample   ;Dark     ;Reference
[nm]   ;[counts] ;[counts] ;[counts] 

288.544;  156.683;    7.793;  793.890
289.143;  161.145;    7.462;  681.602
289.742;  161.858;    8.602;  828.814
290.341;  148.851;    1.321;  789.841
290.940;  138.908;   -0.709;  730.702
291.538;  139.978;    0.881;  881.108
292.137;  138.630;    0.122;  792.581
292.736;  142.471;   -1.929;  975.101
293.335;  138.730;   -8.229;  735.086
293.934;  138.671;   -5.279;  781.677
294.532;  138.299;   -1.369; 1031.958
295.131;  125.106;   -7.641;  834.394
295.730;  125.260;   -8.420;  809.588
296.328;  122.742;   -5.611;  783.442
296.927;  122.998;   -5.781;  779.652
297.525;  123.819;   -6.361;  781.236
298.124;  114.000;  -11.382;  654.009
298.722;  117.956;   -7.641;  761.933
299.321;  116.450;   -6.811;  708.597
299.919;  113.671;   -6.991;  751.918
300.518;  109.454;  -10.362;  689.338
301.116;  111.080;   -9.581;  691.381
301.715;  111.859;   -4.891;  730.222
302.313;  110.695;   -8.801;  704.943
302.911;  105.905;   -8.522;  733.830
303.509;  110.811;   -6.171;  925.627
304.108;  109.125;   -7.311;  760.383
304.706;  107.744;   -8.321;  801.664
305.304;  102.511;  -10.222;  796.707
305.902;  108.235;   -6.021;  784.484
306.500;  102.754;   -4.971;  728.200
307.098;  100.857;   -7.061;  746.560
307.696;   99.595;   -8.801;  780.432
308.294;   99.997;   -6.411;  731.359
308.892;  101.455;   -2.901;  759.769
309.490;   98.129;   -5.041;  712.161
310.088;   95.489;   -5.002;  788.444
310.686;  100.370;   -2.041;  821.749
311.284;   96.467;   -2.351;  766.040
311.882;   93.573;   -4.422;  731.225
312.480;   90.522;   -4.192;  697.167
313.078;   91.446;   -1.172;  808.331
313.675;   93.081;   -2.601;  691.600
314.273;   86.577;   -1.312;  797.837
314.871;   86.418;   -3.942;  589.829
315.468;   84.347;   -2.802;  652.090
316.066;   87.575;   -0.701;  694.427
316.664;   80.709;   -4.362;  656.351
317.261;   83.504;   -2.872;  910.128
317.859;   79.790;   -2.022;  768.735
318.456;   79.462;   -0.531;  830.096
319.054;   75.849;   -3.912;  787.828
319.651;   75.368;   -4.752;  759.928
320.249;   73.589;   -2.602;  810.188
320.846;   71.418;   -0.821;  714.286
321.443;   68.480;   -4.642;  832.135
322.041;   65.493;   -5.002;  812.315
322.638;   63.360;   -3.982;  701.456
323.235;   64.807;   -3.411;  665.683
323.833;   60.975;   -7.361;  740.354
324.430;   56.422;   -8.611;  615.900
325.027;   57.421;   -4.061;  876.855
325.624;   57.410;   -4.031;  644.532
326.221;   54.271;   -7.481;  689.717
326.818;   53.619;   -5.281;  818.332
327.415;   56.193;   -7.460;  748.828
328.012;   55.893;   -5.510;  690.585
328.609;   54.102;   -7.880;  731.389
329.206;   51.636;   -8.331;  778.621
329.803;   51.386;   -5.121;  737.841
330.400;   54.905;   -4.510;  704.260
330.997;   56.861;   -6.441;  817.147
331.594;   55.040;   -8.831;  788.185
332.191;   60.610;   -7.621;  728.722
332.787;   64.126;   -4.591;  844.463
333.384;   62.981;   -7.412;  763.093
333.981;   61.912;   -8.293;  815.687
334.578;   64.877;   -7.052;  708.378
335.174;   67.416;   -3.102;  731.469
335.771;   65.995;   -5.943;  836.456
336.367;   64.776;   -7.393;  710.631
336.964;   67.678;   -4.063;  793.266
337.561;   66.254;   -3.813;  731.112
338.157;   61.460;   -4.654;  911.916
338.754;   59.650;   -7.934;  796.589
339.350;   58.235;   -4.414;  722.493
339.946;   59.175;   -4.664;  773.135
340.543;   51.705;   -6.375;  846.136
341.139;   46.694;   -9.815;  720.836
341.735;   42.503;   -4.526;  772.593
342.332;   41.270;   -4.895;  691.472
342.928;   41.742;   -4.295;  795.394
343.524;   34.668;   -5.476;  761.684
344.120;   31.917;   -5.856;  738.562
344.716;   35.594;   -2.155;  723.717
345.313;   32.487;   -6.275;  795.342
345.909;   27.034;   -8.815;  627.336
346.505;   28.760;   -5.305;  740.247
347.101;   29.631;   -2.674;  827.864
347.697;   29.623;   -4.344;  785.398
348.293;   24.367;   -9.975;  627.244
348.889;   25.155;   -5.774;  745.914
349.485;   24.767;   -5.004;  688.205
350.081;   24.804;   -4.704;  772.592
350.676;   19.830;   -6.635;  691.606
351.272;   24.440;   -4.504;  809.530
351.868;   23.725;   -3.914;  780.497
352.464;   20.627;   -9.044;  723.932
353.059;   17.142;   -8.314;  646.017
353.655;   20.823;   -7.024;  777.063
354.251;   21.244;   -5.343;  759.845
354.846;   15.836;   -8.604;  740.646
355.442;   13.668;   -6.945;  753.071
356.038;   15.546;   -7.564;  751.708
356.633;   15.931;   -5.814;  728.594
357.229;   13.352;   -7.364;  724.757
357.824;   11.392;   -8.024;  703.600
358.420;   11.190;   -9.384;  679.726
359.015;   11.795;   -5.104;  695.357
359.610;   12.849;   -6.854;  763.920
360.206;    6.267;  -10.185;  603.240
360.801;    9.597;   -7.054;  646.503
361.396;   11.122;   -5.034;  725.975
361.992;    7.475;   -8.284;  668.220
362.587;    3.331;   -8.625;  670.160
363.182;    6.250;   -7.674;  689.631
363.777;    7.293;   -5.164;  738.242
364.372;    6.400;   -8.604;  737.314
364.967;    2.692;   -9.055;  680.744
365.563;    7.627;   -6.114;  815.567
366.158;    4.286;   -5.814;  685.161
366.753;    4.281;   -7.854;  649.263
367.348;    1.856;   -7.804;  746.056
367.942;    2.081;   -7.954;  697.298
368.537;    1.766;   -4.984;  754.245
369.132;    1.759;   -8.564;  703.428
369.727;   -2.742;   -8.855;  638.079
370.322;   -0.674;   -6.245;  580.186
370.917;   -1.679;   -6.425;  710.646
371.511;    1.159;   -6.294;  861.834
372.106;   -2.404;   -7.685;  776.964
372.701;   -5.635;   -7.335;  585.988
373.296;   -0.143;   -4.564;  863.135
373.890;   -4.994;  -10.235;  647.840
374.485;   -7.079;   -7.885;  691.199
375.079;   -2.952;   -7.324;  738.685
375.674;   -1.148;   -3.494;  812.970
376.268;   -6.456;   -8.525;  691.759
376.863;  -11.961;  -10.086;  580.327
377.457;   -5.665;   -7.025;  662.490
378.052;   -7.572;   -3.585;  764.884
378.646;   -8.903;   -7.595;  741.167
379.240;   -9.284;   -8.335;  721.176
379.835;   -8.394;   -5.785;  636.978
380.429;  -10.020;   -4.335;  562.557
381.023;  -10.101;   -6.805;  779.205
381.617;  -12.839;   -9.195;  680.106
382.212;   -8.878;   -6.905;  685.303
382.806;   -7.986;   -3.745;  760.690
383.400;  -12.034;   -7.745;  672.281
383.994;  -13.593;   -9.765;  664.870
384.588;  -10.068;   -6.564;  697.701
385.182;   -8.398;   -5.344;  726.624
385.776;   -9.519;   -8.514;  706.875
386.370;  -12.419;   -9.555;  681.968
386.964;  -11.515;   -8.715;  684.155
387.558;  -10.668;   -6.174;  598.360
388.152;  -14.023;   -8.725;  681.959
388.745;  -12.021;   -7.965;  814.707
389.339;   -9.957;   -5.924;  747.642
389.933;  -10.285;   -5.524;  695.370
390.527;  -10.827;   -7.114;  859.029
391.120;  -17.355;  -10.725;  595.318
391.714;  -13.714;   -8.035;  711.633
392.308;  -10.239;   -3.574;  780.253
392.901;  -14.623;   -7.245;  642.460
393.495;  -15.759;   -9.285;  595.414
394.089;  -14.427;   -5.895;  760.452
394.682;  -14.501;   -4.295;  697.188
395.275;  -15.150;   -9.875;  719.927
395.869;  -16.417;   -8.485;  667.314
396.462;  -14.792;   -7.455;  616.609
397.056;  -10.894;   -5.424;  776.621
397.649;  -15.671;   -6.605;  731.575
398.242;  -13.924;   -8.224;  712.645
398.836;  -12.842;   -7.474;  766.408
399.429;  -13.439;   -7.094;  631.041
400.022;  -16.758;   -9.475;  665.902
400.615;  -14.780;   -7.145;  805.609
401.208;  -12.807;   -7.174;  691.451
401.802;  -14.174;   -5.515;  699.329
402.395;  -15.338;   -9.875;  683.502
402.988;  -17.649;   -8.845;  696.627
403.581;  -13.999;   -8.874;  646.878
404.174;  -11.315;   -5.324;  686.568
404.767;  -14.762;   -9.575;  638.583
405.360;  -17.588;  -10.965;  621.445
405.953;  -11.299;   -8.764;  759.034
406.545;  -11.390;   -7.514;  725.342
407.138;  -15.545;  -10.025;  618.350
407.731;  -14.366;  -10.034;  613.303
408.324;   -9.944;   -9.374;  660.554
408.917;  -11.317;   -6.534;  681.864
409.509;  -12.660;   -8.004;  740.396
410.102;  -15.383;   -9.875;  643.948
410.695;   -9.368;   -8.604;  665.758
411.287;  -10.266;   -6.794;  599.821
411.880;  -11.557;   -9.334;  585.421
412.472;  -14.452;  -10.254;  613.092
413.065;  -12.006;   -6.714;  629.408
413.657;   -9.093;   -7.234;  576.678
414.250;   -9.326;  -10.544;  646.681
414.842;  -11.055;   -9.744;  676.353
415.434;   -8.716;   -6.994;  570.463
416.027;   -4.326;   -5.893;  652.196
416.619;   -7.248;   -7.264;  713.400
417.211;   -7.619;  -10.374;  599.352
417.804;   -3.771;   -7.993;  628.499
418.396;   -7.147;   -7.234;  607.643
418.988;   -5.793;   -9.443;  659.238
419.580;   -9.260;  -10.724;  568.276
420.172;   -6.854;  -10.323;  536.196
420.764;   -2.329;   -8.793;  672.482
421.356;   -3.899;  -11.143;  636.898
421.948;   -5.545;   -8.293;  677.661
422.540;    0.591;   -7.893;  680.027
423.132;   -0.374;   -7.082;  600.641
423.724;   -3.621;   -8.653;  561.267
424.316;   -1.956;  -10.213;  621.345
424.908;    2.046;   -9.762;  591.517
425.500;    2.779;   -5.572;  647.978
426.092;    3.260;   -8.422;  648.268
426.683;    1.837;   -9.283;  684.836
427.275;    3.971;   -7.852;  641.471
427.867;    6.773;   -5.272;  668.948
428.458;    6.194;   -7.682;  732.344
429.050;    4.722;  -10.612;  680.749
429.642;    6.750;   -9.882;  743.124
430.233;    7.220;   -6.962;  569.356
430.825;    8.958;   -6.842;  724.809
431.416;    6.114;   -9.672;  698.241
432.008;    9.173;   -6.552;  651.723
432.599;   10.465;   -6.891;  656.073
433.190;    7.238;  -10.912;  637.670
433.782;    6.939;  -11.172;  590.395
434.373;   14.857;   -6.061;  884.765
434.964;   12.325;   -8.251;  602.920
435.556;   10.727;   -9.722;  634.537
436.147;   12.645;   -9.082;  758.490
436.738;   12.922;   -8.041;  701.099
437.329;   17.980;   -7.341;  721.723
437.920;   10.708;   -8.162;  666.688
438.511;   11.553;  -11.802;  564.526
439.103;   17.856;  -10.191;  623.998
439.694;   20.142;   -7.601;  681.583
440.285;   20.803;   -8.541;  764.432
440.876;   18.411;   -9.751;  845.738
441.466;   18.125;   -9.401;  575.162
442.057;   23.821;   -7.760;  665.814
442.648;   22.010;   -9.971;  746.255
443.239;   20.676;  -11.001;  620.477
443.830;   25.880;   -7.990;  704.958
444.421;   27.733;   -7.910;  655.474
445.011;   22.836;   -8.131;  693.619
445.602;   22.738;   -7.111;  743.126
446.193;   25.165;  -10.920;  488.117
446.783;   29.563;   -6.500;  640.397
447.374;   25.454;   -8.671;  692.759
447.964;   26.120;  -10.781;  713.770
448.555;   33.761;   -9.650;  822.742
449.145;   31.340;   -8.660;  662.853
449.736;   30.277;   -8.990;  803.179
450.326;   30.695;   -9.500;  713.626
450.917;   35.699;   -8.680;  675.324
451.507;   34.927;   -7.520;  600.661
452.097;   35.613;   -8.590;  746.267
452.688;   36.420;  -11.340;  742.160
453.278;   35.773;  -10.100;  566.840
453.868;   41.100;   -6.019;  793.550
454.458;   38.684;   -9.440;  651.141
455.048;   39.200;  -10.560;  711.783
455.639;   41.172;  -11.799;  567.096
456.229;   44.376;   -6.899;  710.694
456.819;   46.188;   -7.389;  751.158
457.409;   46.178;  -11.119;  773.993
457.999;   48.990;   -9.289;  737.505
458.589;   49.181;   -6.139;  686.606
459.179;   48.056;   -8.729;  717.658
459.769;   47.010;   -9.789;  627.099
460.358;   52.094;  -10.259;  797.262
460.948;   51.032;   -7.299;  689.503
461.538;   52.476;  -10.289;  660.677
462.128;   50.768;  -11.269;  664.934
462.717;   58.150;   -9.368;  710.326
463.307;   61.087;   -7.908;  705.846
463.897;   57.109;   -9.599;  656.942
464.486;   54.608;   -9.769;  837.128
465.076;   60.152;   -8.048;  733.776
465.666;   64.102;   -9.358;  652.900
466.255;   61.550;   -7.919;  785.651
466.845;   60.704;  -11.689;  666.749
467.434;   64.302;   -7.818;  725.873
468.023;   65.206;   -7.678;  658.357
468.613;   62.053;  -10.939;  713.946
469.202;   66.414;  -10.118;  646.507
469.791;   71.283;   -9.108;  737.811
470.381;   72.447;   -6.058;  742.813
470.970;   71.772;  -10.428;  711.099
471.559;   70.486;  -10.268;  733.291
472.148;   74.523;   -8.448;  675.737
472.738;   77.228;   -6.917;  765.466
473.327;   77.050;  -11.978;  637.529
473.916;   75.819;  -11.888;  737.446
474.505;   80.556;   -9.437;  751.703
475.094;   83.721;   -6.747;  806.570
475.683;   83.077;   -9.367;  797.699
476.272;   84.365;  -12.637;  730.632
476.861;   87.454;  -10.027;  706.754
477.449;   93.411;   -8.716;  728.487
478.038;   87.461;   -9.577;  692.513
478.627;   89.029;   -9.718;  714.852
479.216;   95.535;   -8.947;  769.441
479.805;   97.785;   -6.256;  783.375
480.393;   98.400;   -7.937; 1008.945
480.982;   97.194;   -7.717;  874.501
481.571;  103.856;   -9.266;  858.333
482.159;  104.544;   -7.636;  705.386
482.748;  104.202;   -9.667;  821.385
483.336;  108.340;  -10.376;  858.209
483.925;  109.638;   -7.147;  774.373
484.513;  117.019;   -7.996;  758.962
485.102;  112.389;  -10.027;  810.965
485.690;  121.318;  -10.446; 1011.050
486.278;  121.748;   -8.446;  979.329
486.867;  124.247;   -6.356;  809.662
487.455;  125.788;   -9.136;  898.229
488.043;  127.211;  -10.646;  748.361
488.631;  135.415;   -7.456; 1005.079
489.220;  139.470;   -6.636;  908.626
489.808;  139.371;  -11.036;  741.415
490.396;  147.368;  -10.246;  914.645
490.984;  153.400;   -8.556;  830.161
491.572;  164.241;   -5.886;  940.315
492.160;  170.791;   -9.486;  919.081
492.748;  180.405;  -10.976;  884.341
493.336;  202.076;   -8.776; 1019.693
493.924;  230.416;   -5.465;  958.077
494.512;  263.120;   -9.986; 1066.638
495.100;  300.948;  -10.636; 1103.280
495.687;  365.767;  -10.885; 1206.373
496.275;  441.690;   -8.126; 1150.796
496.863;  517.710;  -10.586; 1281.171
497.451;  620.231;  -11.926; 1386.805
498.038;  720.391;  -10.885; 1556.729
498.626;  836.081;   -6.315; 1741.407
499.214; 1029.560;   -7.326; 2016.609
499.801; 1251.589;  -11.906; 2220.633
500.389; 1543.046;  -10.466; 2312.494
500.976; 1808.271;   -5.236; 2744.849
501.564; 2276.828;   -8.936; 3148.565
502.151; 2885.808;  -13.176; 3515.999
502.738; 3268.207;  -10.646; 3971.274
503.326; 3620.085;   -9.525; 4403.796
503.913; 4027.638;  -10.856; 5161.749
504.500; 4563.414;  -11.586; 5986.420
505.088; 5151.875;  -10.336; 6381.201
505.675; 5940.096;   -6.355; 6925.547
506.262; 6431.529;   -9.046; 7619.060
506.849; 6822.865;  -10.416; 8733.969
507.436; 7229.527;  -10.305; 9790.121
508.023; 7574.462;   -5.496; 9985.472
508.610; 7717.079;   -7.856;10434.618
509.197; 8651.643;  -10.097;11198.435
509.784; 9949.886;  -10.886;12391.194
510.371;11384.014;   -9.315;13603.713
510.958;12439.477;   -9.936;14426.586
511.545;13032.305;   -9.326;15243.775
512.132;13286.038;  -10.075;15945.876
512.719;13823.782;   -7.796;16340.369
513.305;15106.673;  -10.606;18011.766
513.892;16548.838;  -11.486;19754.971
514.479;17825.484;   -9.126;20967.805
515.066;19262.848;   -6.026;22299.793
515.652;19309.377;   -8.466;22908.660
516.239;19867.756;  -10.886;23798.875
516.825;21367.166;  -11.496;25567.275
517.412;22901.793;   -5.796;28154.959
517.998;23990.701;  -10.506;28344.111
518.585;24694.465;  -10.076;27134.219
519.171;24295.855;   -8.315;27268.576
519.758;25020.420;   -8.596;28964.129
520.344;27543.754;   -8.466;30664.494
520.930;26831.770;  -11.006;32550.605
521.516;25363.691;  -10.495;35422.895
522.103;27194.227;   -5.526;38280.004
522.689;29640.701;   -8.746;37835.117
523.275;30631.049;  -11.376;37288.613
523.861;32533.119;  -11.156;37281.395
524.447;31975.637;   -8.135;37846.949
525.033;32378.727;   -7.896;38321.949
525.619;33441.742;  -12.476;38579.285
526.205;33452.625;   -9.516;40622.875
526.791;32978.438;   -6.926;42258.836
527.377;32933.496;   -8.346;42966.902
527.963;34953.945;   -8.717;42018.949
528.549;36301.191;  -11.016;42476.828
529.135;34637.930;   -8.536;41854.852
529.721;34389.230;   -9.666;41237.711
530.306;33525.445;  -10.066;41259.445
530.892;34881.918;  -11.356;41506.047
531.478;36734.430;   -6.596;43559.613
532.063;38705.004;   -8.836;47695.563
532.649;37234.789;  -10.047;50808.324
533.235;37528.520;   -9.746;51787.500
533.820;39705.465;   -6.566;52145.035
534.406;41271.082;  -10.817;51133.488
534.991;43271.633;   -9.416;49996.805
535.576;41808.027;   -9.036;48882.852
536.162;38968.418;   -6.156;46942.285
536.747;39281.613;  -11.607;45711.746
537.333;42170.598;  -11.787;48510.180
537.918;43357.391;  -12.437;50439.891
538.503;42740.680;   -7.196;50863.711
539.088;43520.645;  -10.556;50906.922
539.673;44398.902;   -8.767;52621.965
540.259;41224.621;  -10.026;52368.094
540.844;40885.461;   -7.416;50879.109
541.429;40371.906;   -9.467;52077.777
542.014;39810.813;   -9.527;52716.695
542.599;42981.254;   -9.946;52363.281
543.184;44068.305;   -7.927;53187.137
543.769;44554.563;   -9.297;54697.605
544.354;45064.199;  -10.127;53913.914
544.938;42739.270;   -9.267;49680.164
545.523;40895.168;   -6.506;47386.277
546.108;43237.879;   -9.787;49151.949
546.693;44339.160;  -11.587;51384.637
547.278;44062.117;  -10.986;51853.254
547.862;44397.473;   -8.206;51173.750
548.447;42950.836;  -10.067;51691.395
549.031;42883.777;   -9.637;52456.703
549.616;43470.855;   -9.926;52714.516
550.201;42522.789;   -6.347;52414.598
550.785;43770.820;   -7.917;52355.059
551.370;44707.332;  -10.867;54589.453
551.954;46496.164;   -9.047;58267.348
552.538;45610.859;   -7.827;59062.176
553.123;43367.402;  -10.287;58115.285
553.707;42441.766;  -12.178;56556.285
554.291;39979.625;   -8.717;56201.668
554.876;41870.754;   -7.457;55335.762
555.460;44278.379;  -10.387;54155.703
556.044;45459.664;   -9.618;53721.484
556.628;45902.781;  -11.567;53731.016
557.212;46456.852;   -8.097;54312.531
557.796;48250.496;  -11.077;53797.773
558.380;46747.379;  -11.108;56145.984
558.964;44801.473;   -9.057;57277.930
559.548;42442.766;   -6.977;56459.641
560.132;39248.848;  -11.457;54434.543
560.716;40750.754;  -11.378;54800.617
561.300;42614.023;   -9.577;57606.945
561.884;41265.707;   -7.127;58972.445
562.467;40158.723;   -7.118;57327.570
563.051;38507.023;  -13.358;54962.434
563.635;36448.313;  -10.178;52594.473
564.219;38190.469;   -7.837;50610.410
564.802;41309.773;  -11.398;49551.180
565.386;41788.738;  -12.788;48370.953
565.969;43100.535;   -9.077;48178.871
566.553;42618.035;   -6.207;49957.305
567.136;41218.887;   -8.568;50369.594
567.720;42336.711;  -11.868;49492.004
568.303;43199.172;   -8.268;50616.352
568.887;42029.945;   -8.698;50727.148
569.470;39493.813;   -6.808;51698.379
570.053;37169.133;  -13.188;52122.078
570.637;34998.449;  -12.037;52536.438
571.220;35420.941;   -8.577;51186.098
571.803;35574.172;   -8.498;51032.762
572.386;37721.961;  -10.498;49609.887
572.969;38421.605;   -9.388;48285.926
573.552;38612.762;   -8.338;47624.285
574.135;37594.867;   -8.518;45498.641
574.718;33650.441;  -13.628;41970.434
575.301;33391.879;  -10.893;41447.137
575.884;33133.320;   -8.158;40923.836
576.467;38019.723;  -10.328;45267.723
577.050;38985.031;  -13.058;48175.543
577.633;37876.227;   -9.458;47729.328
578.216;34816.316;   -8.928;47579.793
578.799;32899.129;   -9.358;47820.996
579.381;34432.836;  -11.388;48115.551
579.964;34496.938;  -11.718;47333.766
580.547;33412.535;   -8.588;46668.969
581.129;34519.453;   -8.859;44466.141
581.712;36430.797;  -10.729;44164.922
582.294;35802.309;  -11.118;46477.855
582.877;36453.180;   -5.218;48244.254
583.459;36543.297;   -8.679;47437.895
584.042;37569.395;  -10.709;46943.219
584.624;35975.125;  -11.669;46792.227
585.206;34777.555;   -8.218;46557.250
585.789;35108.766;  -10.569;45793.773
586.371;35370.973;  -11.859;43836.391
586.953;36626.457;  -10.719;42972.492
587.536;38092.313;   -7.198;42487.211
588.118;36746.102;   -8.720;42086.414
588.700;35336.320;  -10.439;43389.930
589.282;32843.770;   -9.198;43646.039
589.864;30689.277;   -9.199;43438.109
590.446;30254.365;  -11.319;43151.926
591.028;29116.742;  -11.159;42781.867
591.610;28014.961;  -11.779;42839.098
592.192;27695.869;   -7.668;42820.402
592.774;26438.520;  -11.949;40724.277
593.356;26210.461;  -12.129;39874.789
593.937;28424.406;  -10.669;39980.648
594.519;32068.783;   -6.509;42069.633
595.101;32694.105;  -10.849;42976.031
