
Integration time [ms]:   3.276
Averaging Nr. [scans]: 1000
Smoothing Nr. [pixels]: 0
Data measured with spectrometer [name]: 7414430SP
Wave   ;Sample   ;Dark     ;Reference
[nm]   ;[counts] ;[counts] ;[counts] 

288.544;  158.154;    7.793;  793.890
289.143;  162.217;    7.462;  681.602
289.742;  162.279;    8.602;  828.814
290.341;  149.041;    1.321;  789.841
290.940;  140.200;   -0.709;  730.702
291.538;  140.010;    0.881;  881.108
292.137;  138.457;    0.122;  792.581
292.736;  141.817;   -1.929;  975.101
293.335;  137.753;   -8.229;  735.086
293.934;  138.424;   -5.279;  781.677
294.532;  138.550;   -1.369; 1031.958
295.131;  124.414;   -7.641;  834.394
295.730;  124.056;   -8.420;  809.588
296.328;  123.258;   -5.611;  783.442
296.927;  123.084;   -5.781;  779.652
297.525;  122.868;   -6.361;  781.236
298.124;  114.334;  -11.382;  654.009
298.722;  118.144;   -7.641;  761.933
299.321;  116.038;   -6.811;  708.597
299.919;  113.423;   -6.991;  751.918
300.518;  110.596;  -10.362;  689.338
301.116;  111.045;   -9.581;  691.381
301.715;  111.297;   -4.891;  730.222
302.313;  110.397;   -8.801;  704.943
302.911;  105.806;   -8.522;  733.830
303.509;  109.765;   -6.171;  925.627
304.108;  108.554;   -7.311;  760.383
304.706;  107.669;   -8.321;  801.664
305.304;  102.516;  -10.222;  796.707
305.902;  108.090;   -6.021;  784.484
306.500;  103.814;   -4.971;  728.200
307.098;  101.675;   -7.061;  746.560
307.696;   99.837;   -8.801;  780.432
308.294;  100.921;   -6.411;  731.359
308.892;  101.172;   -2.901;  759.769
309.490;   97.900;   -5.041;  712.161
310.088;   95.705;   -5.002;  788.444
310.686;   99.495;   -2.041;  821.749
311.284;   95.995;   -2.351;  766.040
311.882;   93.993;   -4.422;  731.225
312.480;   91.125;   -4.192;  697.167
313.078;   92.214;   -1.172;  808.331
313.675;   93.654;   -2.601;  691.600
314.273;   87.651;   -1.312;  797.837
314.871;   86.849;   -3.942;  589.829
315.468;   84.529;   -2.802;  652.090
316.066;   87.870;   -0.701;  694.427
316.664;   80.733;   -4.362;  656.351
317.261;   84.514;   -2.872;  910.128
317.859;   80.642;   -2.022;  768.735
318.456;   80.046;   -0.531;  830.096
319.054;   76.625;   -3.912;  787.828
319.651;   75.608;   -4.752;  759.928
320.249;   74.651;   -2.602;  810.188
320.846;   71.965;   -0.821;  714.286
321.443;   69.136;   -4.642;  832.135
322.041;   65.575;   -5.002;  812.315
322.638;   63.506;   -3.982;  701.456
323.235;   65.487;   -3.411;  665.683
323.833;   62.675;   -7.361;  740.354
324.430;   57.186;   -8.611;  615.900
325.027;   57.958;   -4.061;  876.855
325.624;   57.863;   -4.031;  644.532
326.221;   55.548;   -7.481;  689.717
326.818;   53.831;   -5.281;  818.332
327.415;   56.879;   -7.460;  748.828
328.012;   56.932;   -5.510;  690.585
328.609;   55.365;   -7.880;  731.389
329.206;   53.332;   -8.331;  778.621
329.803;   53.006;   -5.121;  737.841
330.400;   56.181;   -4.510;  704.260
330.997;   58.213;   -6.441;  817.147
331.594;   56.328;   -8.831;  788.185
332.191;   61.318;   -7.621;  728.722
332.787;   64.111;   -4.591;  844.463
333.384;   64.043;   -7.412;  763.093
333.981;   62.942;   -8.293;  815.687
334.578;   65.541;   -7.052;  708.378
335.174;   68.170;   -3.102;  731.469
335.771;   67.867;   -5.943;  836.456
336.367;   65.032;   -7.393;  710.631
336.964;   67.786;   -4.063;  793.266
337.561;   66.983;   -3.813;  731.112
338.157;   62.433;   -4.654;  911.916
338.754;   60.575;   -7.934;  796.589
339.350;   59.032;   -4.414;  722.493
339.946;   59.817;   -4.664;  773.135
340.543;   52.592;   -6.375;  846.136
341.139;   46.991;   -9.815;  720.836
341.735;   43.219;   -4.526;  772.593
342.332;   41.754;   -4.895;  691.472
342.928;   42.594;   -4.295;  795.394
343.524;   36.265;   -5.476;  761.684
344.120;   32.388;   -5.856;  738.562
344.716;   35.902;   -2.155;  723.717
345.313;   33.992;   -6.275;  795.342
345.909;   29.065;   -8.815;  627.336
346.505;   29.631;   -5.305;  740.247
347.101;   30.520;   -2.674;  827.864
347.697;   30.528;   -4.344;  785.398
348.293;   25.637;   -9.975;  627.244
348.889;   26.518;   -5.774;  745.914
349.485;   26.081;   -5.004;  688.205
350.081;   26.206;   -4.704;  772.592
350.676;   21.380;   -6.635;  691.606
351.272;   25.382;   -4.504;  809.530
351.868;   24.697;   -3.914;  780.497
352.464;   22.772;   -9.044;  723.932
353.059;   19.380;   -8.314;  646.017
353.655;   22.191;   -7.024;  777.063
354.251;   22.857;   -5.343;  759.845
354.846;   18.051;   -8.604;  740.646
355.442;   14.900;   -6.945;  753.071
356.038;   17.028;   -7.564;  751.708
356.633;   17.234;   -5.814;  728.594
357.229;   14.708;   -7.364;  724.757
357.824;   13.715;   -8.024;  703.600
358.420;   12.603;   -9.384;  679.726
359.015;   13.233;   -5.104;  695.357
359.610;   14.233;   -6.854;  763.920
360.206;    7.814;  -10.185;  603.240
360.801;   11.135;   -7.054;  646.503
361.396;   12.707;   -5.034;  725.975
361.992;    8.504;   -8.284;  668.220
362.587;    6.345;   -8.625;  670.160
363.182;    7.820;   -7.674;  689.631
363.777;    8.860;   -5.164;  738.242
364.372;    8.140;   -8.604;  737.314
364.967;    4.219;   -9.055;  680.744
365.563;    9.323;   -6.114;  815.567
366.158;    6.134;   -5.814;  685.161
366.753;    5.819;   -7.854;  649.263
367.348;    4.472;   -7.804;  746.056
367.942;    4.339;   -7.954;  697.298
368.537;    4.509;   -4.984;  754.245
369.132;    4.044;   -8.564;  703.428
369.727;   -0.365;   -8.855;  638.079
370.322;    0.921;   -6.245;  580.186
370.917;    0.488;   -6.425;  710.646
371.511;    3.650;   -6.294;  861.834
372.106;   -0.795;   -7.685;  776.964
372.701;   -2.474;   -7.335;  585.988
373.296;    2.276;   -4.564;  863.135
373.890;   -2.274;  -10.235;  647.840
374.485;   -4.670;   -7.885;  691.199
375.079;   -0.747;   -7.324;  738.685
375.674;    0.978;   -3.494;  812.970
376.268;   -3.578;   -8.525;  691.759
376.863;   -8.635;  -10.086;  580.327
377.457;   -3.325;   -7.025;  662.490
378.052;   -4.816;   -3.585;  764.884
378.646;   -5.238;   -7.595;  741.167
379.240;   -6.370;   -8.335;  721.176
379.835;   -5.609;   -5.785;  636.978
380.429;   -7.920;   -4.335;  562.557
381.023;   -7.448;   -6.805;  779.205
381.617;   -9.544;   -9.195;  680.106
382.212;   -6.250;   -6.905;  685.303
382.806;   -5.361;   -3.745;  760.690
383.400;   -9.382;   -7.745;  672.281
383.994;  -10.186;   -9.765;  664.870
384.588;   -7.071;   -6.564;  697.701
385.182;   -5.465;   -5.344;  726.624
385.776;   -6.650;   -8.514;  706.875
386.370;   -9.776;   -9.555;  681.968
386.964;   -8.971;   -8.715;  684.155
387.558;   -7.978;   -6.174;  598.360
388.152;  -10.684;   -8.725;  681.959
388.745;   -9.093;   -7.965;  814.707
389.339;   -6.562;   -5.924;  747.642
389.933;   -6.923;   -5.524;  695.370
390.527;   -7.256;   -7.114;  859.029
391.120;  -13.763;  -10.725;  595.318
391.714;  -10.487;   -8.035;  711.633
392.308;   -7.243;   -3.574;  780.253
392.901;  -11.273;   -7.245;  642.460
393.495;  -12.203;   -9.285;  595.414
394.089;  -11.092;   -5.895;  760.452
394.682;  -12.106;   -4.295;  697.188
395.275;  -12.416;   -9.875;  719.927
395.869;  -13.773;   -8.485;  667.314
396.462;  -12.254;   -7.455;  616.609
397.056;   -7.702;   -5.424;  776.621
397.649;  -12.601;   -6.605;  731.575
398.242;  -10.230;   -8.224;  712.645
398.836;   -8.533;   -7.474;  766.408
399.429;  -10.612;   -7.094;  631.041
400.022;  -13.163;   -9.475;  665.902
400.615;  -11.067;   -7.145;  805.609
401.208;   -9.107;   -7.174;  691.451
401.802;  -12.282;   -5.515;  699.329
402.395;  -13.158;   -9.875;  683.502
402.988;  -13.294;   -8.845;  696.627
403.581;  -10.448;   -8.874;  646.878
404.174;   -8.547;   -5.324;  686.568
404.767;  -11.607;   -9.575;  638.583
405.360;  -13.605;  -10.965;  621.445
405.953;   -7.617;   -8.764;  759.034
406.545;   -7.667;   -7.514;  725.342
407.138;  -12.473;  -10.025;  618.350
407.731;  -10.588;  -10.034;  613.303
408.324;   -6.414;   -9.374;  660.554
408.917;   -8.141;   -6.534;  681.864
409.509;   -9.758;   -8.004;  740.396
410.102;  -11.846;   -9.875;  643.948
410.695;   -5.552;   -8.604;  665.758
411.287;   -6.640;   -6.794;  599.821
411.880;   -7.478;   -9.334;  585.421
412.472;  -10.781;  -10.254;  613.092
413.065;   -8.344;   -6.714;  629.408
413.657;   -6.130;   -7.234;  576.678
414.250;   -5.080;  -10.544;  646.681
414.842;   -7.662;   -9.744;  676.353
415.434;   -5.192;   -6.994;  570.463
416.027;   -1.103;   -5.893;  652.196
416.619;   -3.091;   -7.264;  713.400
417.211;   -3.162;  -10.374;  599.352
417.804;    0.722;   -7.993;  628.499
418.396;   -3.980;   -7.234;  607.643
418.988;   -1.888;   -9.443;  659.238
419.580;   -5.131;  -10.724;  568.276
420.172;   -3.528;  -10.323;  536.196
420.764;    0.867;   -8.793;  672.482
421.356;    0.051;  -11.143;  636.898
421.948;   -0.758;   -8.293;  677.661
422.540;    4.741;   -7.893;  680.027
423.132;    3.352;   -7.082;  600.641
423.724;   -0.346;   -8.653;  561.267
424.316;    2.237;  -10.213;  621.345
424.908;    5.940;   -9.762;  591.517
425.500;    6.640;   -5.572;  647.978
426.092;    6.766;   -8.422;  648.268
426.683;    6.281;   -9.283;  684.836
427.275;    8.465;   -7.852;  641.471
427.867;   10.223;   -5.272;  668.948
428.458;   10.312;   -7.682;  732.344
429.050;    8.877;  -10.612;  680.749
429.642;   11.296;   -9.882;  743.124
430.233;   11.820;   -6.962;  569.356
430.825;   13.517;   -6.842;  724.809
431.416;   10.435;   -9.672;  698.241
432.008;   14.562;   -6.552;  651.723
432.599;   14.568;   -6.891;  656.073
433.190;   11.943;  -10.912;  637.670
433.782;   11.071;  -11.172;  590.395
434.373;   18.579;   -6.061;  884.765
434.964;   17.364;   -8.251;  602.920
435.556;   15.479;   -9.722;  634.537
436.147;   18.086;   -9.082;  758.490
436.738;   17.650;   -8.041;  701.099
437.329;   22.739;   -7.341;  721.723
437.920;   15.448;   -8.162;  666.688
438.511;   16.460;  -11.802;  564.526
439.103;   23.140;  -10.191;  623.998
439.694;   24.037;   -7.601;  681.583
440.285;   25.071;   -8.541;  764.432
440.876;   23.989;   -9.751;  845.738
441.466;   23.210;   -9.401;  575.162
442.057;   28.491;   -7.760;  665.814
442.648;   27.682;   -9.971;  746.255
443.239;   25.671;  -11.001;  620.477
443.830;   30.790;   -7.990;  704.958
444.421;   32.473;   -7.910;  655.474
445.011;   29.079;   -8.131;  693.619
445.602;   28.528;   -7.111;  743.126
446.193;   30.382;  -10.920;  488.117
446.783;   34.754;   -6.500;  640.397
447.374;   29.686;   -8.671;  692.759
447.964;   31.032;  -10.781;  713.770
448.555;   39.053;   -9.650;  822.742
449.145;   35.935;   -8.660;  662.853
449.736;   37.204;   -8.990;  803.179
450.326;   36.709;   -9.500;  713.626
450.917;   41.753;   -8.680;  675.324
451.507;   40.273;   -7.520;  600.661
452.097;   41.311;   -8.590;  746.267
452.688;   42.664;  -11.340;  742.160
453.278;   42.604;  -10.100;  566.840
453.868;   46.301;   -6.019;  793.550
454.458;   44.807;   -9.440;  651.141
455.048;   46.055;  -10.560;  711.783
455.639;   47.412;  -11.799;  567.096
456.229;   49.625;   -6.899;  710.694
456.819;   52.239;   -7.389;  751.158
457.409;   52.286;  -11.119;  773.993
457.999;   55.126;   -9.289;  737.505
458.589;   55.226;   -6.139;  686.606
459.179;   54.655;   -8.729;  717.658
459.769;   53.148;   -9.789;  627.099
460.358;   58.252;  -10.259;  797.262
460.948;   57.725;   -7.299;  689.503
461.538;   59.530;  -10.289;  660.677
462.128;   57.989;  -11.269;  664.934
462.717;   64.277;   -9.368;  710.326
463.307;   67.370;   -7.908;  705.846
463.897;   63.503;   -9.599;  656.942
464.486;   63.037;   -9.769;  837.128
465.076;   67.560;   -8.048;  733.776
465.666;   69.723;   -9.358;  652.900
466.255;   68.519;   -7.919;  785.651
466.845;   67.766;  -11.689;  666.749
467.434;   71.063;   -7.818;  725.873
468.023;   71.549;   -7.678;  658.357
468.613;   69.191;  -10.939;  713.946
469.202;   74.200;  -10.118;  646.507
469.791;   78.360;   -9.108;  737.811
470.381;   79.294;   -6.058;  742.813
470.970;   79.696;  -10.428;  711.099
471.559;   79.145;  -10.268;  733.291
472.148;   82.737;   -8.448;  675.737
472.738;   85.156;   -6.917;  765.466
473.327;   84.800;  -11.978;  637.529
473.916;   84.684;  -11.888;  737.446
474.505;   88.740;   -9.437;  751.703
475.094;   92.056;   -6.747;  806.570
475.683;   91.717;   -9.367;  797.699
476.272;   91.810;  -12.637;  730.632
476.861;   95.153;  -10.027;  706.754
477.449;  101.775;   -8.716;  728.487
478.038;   96.031;   -9.577;  692.513
478.627;   97.069;   -9.718;  714.852
479.216;  104.240;   -8.947;  769.441
479.805;  107.092;   -6.256;  783.375
480.393;  107.318;   -7.937; 1008.945
480.982;  106.333;   -7.717;  874.501
481.571;  112.968;   -9.266;  858.333
482.159;  113.560;   -7.636;  705.386
482.748;  113.943;   -9.667;  821.385
483.336;  118.628;  -10.376;  858.209
483.925;  119.428;   -7.147;  774.373
484.513;  125.855;   -7.996;  758.962
485.102;  123.644;  -10.027;  810.965
485.690;  131.489;  -10.446; 1011.050
486.278;  133.099;   -8.446;  979.329
486.867;  134.452;   -6.356;  809.662
487.455;  136.869;   -9.136;  898.229
488.043;  138.030;  -10.646;  748.361
488.631;  147.782;   -7.456; 1005.079
489.220;  150.993;   -6.636;  908.626
489.808;  152.019;  -11.036;  741.415
490.396;  160.291;  -10.246;  914.645
490.984;  167.538;   -8.556;  830.161
491.572;  179.491;   -5.886;  940.315
492.160;  187.258;   -9.486;  919.081
492.748;  198.558;  -10.976;  884.341
493.336;  221.704;   -8.776; 1019.693
493.924;  252.876;   -5.465;  958.077
494.512;  291.729;   -9.986; 1066.638
495.100;  338.617;  -10.636; 1103.280
495.687;  407.328;  -10.885; 1206.373
496.275;  494.361;   -8.126; 1150.796
496.863;  576.406;  -10.586; 1281.171
497.451;  691.030;  -11.926; 1386.805
498.038;  800.990;  -10.885; 1556.729
498.626;  934.390;   -6.315; 1741.407
499.214; 1152.683;   -7.326; 2016.609
499.801; 1404.833;  -11.906; 2220.633
500.389; 1732.216;  -10.466; 2312.494
500.976; 2028.536;   -5.236; 2744.849
501.564; 2535.365;   -8.936; 3148.565
502.151; 3221.429;  -13.176; 3515.999
502.738; 3654.070;  -10.646; 3971.274
503.326; 4052.540;   -9.525; 4403.796
503.913; 4495.727;  -10.856; 5161.749
504.500; 5050.894;  -11.586; 5986.420
505.088; 5676.502;  -10.336; 6381.201
505.675; 6556.281;   -6.355; 6925.547
506.262; 7101.119;   -9.046; 7619.060
506.849; 7518.458;  -10.416; 8733.969
507.436; 8038.188;  -10.305; 9790.121
508.023; 8459.435;   -5.496; 9985.472
508.610; 8576.757;   -7.856;10434.618
509.197; 9580.074;  -10.097;11198.435
509.784;11018.097;  -10.886;12391.194
510.371;12613.173;   -9.315;13603.713
510.958;13852.154;   -9.936;14426.586
511.545;14468.047;   -9.326;15243.775
512.132;14651.426;  -10.075;15945.876
512.719;15253.074;   -7.796;16340.369
513.305;16693.373;  -10.606;18011.766
513.892;18277.166;  -11.486;19754.971
514.479;19584.963;   -9.126;20967.805
515.066;21102.977;   -6.026;22299.793
515.652;21218.084;   -8.466;22908.660
516.239;21765.473;  -10.886;23798.875
516.825;23462.150;  -11.496;25567.275
517.412;25243.354;   -5.796;28154.959
517.998;26488.043;  -10.506;28344.111
518.585;27414.836;  -10.076;27134.219
519.171;26917.320;   -8.315;27268.576
519.758;27688.035;   -8.596;28964.129
520.344;30405.260;   -8.466;30664.494
520.930;29474.570;  -11.006;32550.605
521.516;27758.824;  -10.495;35422.895
522.103;29775.201;   -5.526;38280.004
522.689;32345.197;   -8.746;37835.117
523.275;33467.883;  -11.376;37288.613
523.861;35576.926;  -11.156;37281.395
524.447;35019.734;   -8.135;37846.949
525.033;35505.691;   -7.896;38321.949
525.619;36645.902;  -12.476;38579.285
526.205;36687.203;   -9.516;40622.875
526.791;36096.488;   -6.926;42258.836
527.377;35975.520;   -8.346;42966.902
527.963;37963.426;   -8.717;42018.949
528.549;39564.875;  -11.016;42476.828
529.135;37898.520;   -8.536;41854.852
529.721;37678.578;   -9.666;41237.711
530.306;36777.762;  -10.066;41259.445
530.892;38049.859;  -11.356;41506.047
531.478;39966.715;   -6.596;43559.613
532.063;42119.941;   -8.836;47695.563
532.649;40415.465;  -10.047;50808.324
533.235;40575.469;   -9.746;51787.500
533.820;43052.188;   -6.566;52145.035
534.406;44790.430;  -10.817;51133.488
534.991;46886.074;   -9.416;49996.805
535.576;45512.238;   -9.036;48882.852
536.162;42551.477;   -6.156;46942.285
536.747;42980.566;  -11.607;45711.746
537.333;46027.141;  -11.787;48510.180
537.918;47047.457;  -12.437;50439.891
538.503;46434.383;   -7.196;50863.711
539.088;47270.734;  -10.556;50906.922
539.673;48284.090;   -8.767;52621.965
540.259;44743.645;  -10.026;52368.094
540.844;44082.887;   -7.416;50879.109
541.429;43745.145;   -9.467;52077.777
542.014;43262.660;   -9.527;52716.695
542.599;46603.195;   -9.946;52363.281
543.184;47857.824;   -7.927;53187.137
543.769;48134.047;   -9.297;54697.605
544.354;48434.066;  -10.127;53913.914
544.938;46068.504;   -9.267;49680.164
545.523;44273.711;   -6.506;47386.277
546.108;46515.543;   -9.787;49151.949
546.693;47383.438;  -11.587;51384.637
547.278;47334.410;  -10.986;51853.254
547.862;47718.078;   -8.206;51173.750
548.447;46225.973;  -10.067;51691.395
549.031;46160.898;   -9.637;52456.703
549.616;46577.063;   -9.926;52714.516
550.201;45500.680;   -6.347;52414.598
550.785;46563.234;   -7.917;52355.059
551.370;47609.125;  -10.867;54589.453
551.954;49859.543;   -9.047;58267.348
552.538;48911.961;   -7.827;59062.176
553.123;46698.805;  -10.287;58115.285
553.707;45830.816;  -12.178;56556.285
554.291;43107.141;   -8.717;56201.668
554.876;44643.070;   -7.457;55335.762
555.460;47195.641;  -10.387;54155.703
556.044;48706.133;   -9.618;53721.484
556.628;49362.375;  -11.567;53731.016
557.212;50132.828;   -8.097;54312.531
557.796;51786.488;  -11.077;53797.773
558.380;49641.250;  -11.108;56145.984
558.964;47441.133;   -9.057;57277.930
559.548;45066.242;   -6.977;56459.641
560.132;41861.422;  -11.457;54434.543
560.716;43433.375;  -11.378;54800.617
561.300;45513.629;   -9.577;57606.945
561.884;44179.945;   -7.127;58972.445
562.467;42920.660;   -7.118;57327.570
563.051;41412.777;  -13.358;54962.434
563.635;39358.707;  -10.178;52594.473
564.219;41111.652;   -7.837;50610.410
564.802;44469.621;  -11.398;49551.180
565.386;44872.680;  -12.788;48370.953
565.969;46081.305;   -9.077;48178.871
566.553;45360.848;   -6.207;49957.305
567.136;43771.766;   -8.568;50369.594
567.720;45021.820;  -11.868;49492.004
568.303;46089.609;   -8.268;50616.352
568.887;45004.859;   -8.698;50727.148
569.470;42458.879;   -6.808;51698.379
570.053;40224.973;  -13.188;52122.078
570.637;37952.270;  -12.037;52536.438
571.220;38153.773;   -8.577;51186.098
571.803;38307.418;   -8.498;51032.762
572.386;40787.137;  -10.498;49609.887
572.969;41810.383;   -9.388;48285.926
573.552;42238.578;   -8.338;47624.285
574.135;41543.113;   -8.518;45498.641
574.718;38040.070;  -13.628;41970.434
575.301;37704.555;  -10.893;41447.137
575.884;37369.039;   -8.158;40923.836
576.467;41724.551;  -10.328;45267.723
577.050;42083.852;  -13.058;48175.543
577.633;40627.406;   -9.458;47729.328
578.216;37035.613;   -8.928;47579.793
578.799;34727.863;   -9.358;47820.996
579.381;36168.211;  -11.388;48115.551
579.964;36126.641;  -11.718;47333.766
580.547;35102.133;   -8.588;46668.969
581.129;36172.742;   -8.859;44466.141
581.712;37931.270;  -10.729;44164.922
582.294;37292.473;  -11.118;46477.855
582.877;38203.965;   -5.218;48244.254
583.459;38640.637;   -8.679;47437.895
584.042;39900.152;  -10.709;46943.219
584.624;37999.711;  -11.669;46792.227
585.206;36515.273;   -8.218;46557.250
585.789;37089.645;  -10.569;45793.773
586.371;37553.617;  -11.859;43836.391
586.953;38861.156;  -10.719;42972.492
587.536;40341.453;   -7.198;42487.211
588.118;38961.543;   -8.720;42086.414
588.700;37634.012;  -10.439;43389.930
589.282;35141.199;   -9.198;43646.039
589.864;33071.602;   -9.199;43438.109
590.446;33019.883;  -11.319;43151.926
591.028;32454.338;  -11.159;42781.867
591.610;32426.367;  -11.779;42839.098
592.192;33844.129;   -7.668;42820.402
592.774;33420.145;  -11.949;40724.277
593.356;31553.025;  -12.129;39874.789
593.937;31489.121;  -10.669;39980.648
594.519;33964.563;   -6.509;42069.633
595.101;33999.613;  -10.849;42976.031
