
Integration time [ms]:   3.276
Averaging Nr. [scans]: 1000
Smoothing Nr. [pixels]: 0
Data measured with spectrometer [name]: 7414430SP
Wave   ;Sample   ;Dark     ;Reference
[nm]   ;[counts] ;[counts] ;[counts] 

288.544;  150.086;    7.793;  793.890
289.143;  153.388;    7.462;  681.602
289.742;  154.221;    8.602;  828.814
290.341;  139.727;    1.321;  789.841
290.940;  128.724;   -0.709;  730.702
291.538;  129.151;    0.881;  881.108
292.137;  129.671;    0.122;  792.581
292.736;  134.488;   -1.929;  975.101
293.335;  130.315;   -8.229;  735.086
293.934;  130.988;   -5.279;  781.677
294.532;  129.455;   -1.369; 1031.958
295.131;  115.604;   -7.641;  834.394
295.730;  116.070;   -8.420;  809.588
296.328;  114.091;   -5.611;  783.442
296.927;  115.910;   -5.781;  779.652
297.525;  116.118;   -6.361;  781.236
298.124;  106.513;  -11.382;  654.009
298.722;  110.013;   -7.641;  761.933
299.321;  108.388;   -6.811;  708.597
299.919;  105.842;   -6.991;  751.918
300.518;  103.167;  -10.362;  689.338
301.116;  105.029;   -9.581;  691.381
301.715;  104.625;   -4.891;  730.222
302.313;  103.932;   -8.801;  704.943
302.911;   99.339;   -8.522;  733.830
303.509;  104.819;   -6.171;  925.627
304.108;  102.460;   -7.311;  760.383
304.706;  102.040;   -8.321;  801.664
305.304;   95.413;  -10.222;  796.707
305.902;  101.381;   -6.021;  784.484
306.500;   97.326;   -4.971;  728.200
307.098;   95.356;   -7.061;  746.560
307.696;   93.358;   -8.801;  780.432
308.294;   93.198;   -6.411;  731.359
308.892;   95.674;   -2.901;  759.769
309.490;   92.152;   -5.041;  712.161
310.088;   90.455;   -5.002;  788.444
310.686;   94.297;   -2.041;  821.749
311.284;   90.214;   -2.351;  766.040
311.882;   87.840;   -4.422;  731.225
312.480;   85.384;   -4.192;  697.167
313.078;   86.540;   -1.172;  808.331
313.675;   87.018;   -2.601;  691.600
314.273;   81.854;   -1.312;  797.837
314.871;   82.208;   -3.942;  589.829
315.468;   80.071;   -2.802;  652.090
316.066;   82.649;   -0.701;  694.427
316.664;   75.800;   -4.362;  656.351
317.261;   79.145;   -2.872;  910.128
317.859;   75.200;   -2.022;  768.735
318.456;   75.420;   -0.531;  830.096
319.054;   71.546;   -3.912;  787.828
319.651;   69.756;   -4.752;  759.928
320.249;   69.267;   -2.602;  810.188
320.846;   67.710;   -0.821;  714.286
321.443;   64.892;   -4.642;  832.135
322.041;   60.568;   -5.002;  812.315
322.638;   58.867;   -3.982;  701.456
323.235;   60.413;   -3.411;  665.683
323.833;   57.783;   -7.361;  740.354
324.430;   53.089;   -8.611;  615.900
325.027;   53.320;   -4.061;  876.855
325.624;   53.861;   -4.031;  644.532
326.221;   50.904;   -7.481;  689.717
326.818;   50.276;   -5.281;  818.332
327.415;   53.378;   -7.460;  748.828
328.012;   53.575;   -5.510;  690.585
328.609;   52.037;   -7.880;  731.389
329.206;   49.668;   -8.331;  778.621
329.803;   49.753;   -5.121;  737.841
330.400;   52.719;   -4.510;  704.260
330.997;   53.693;   -6.441;  817.147
331.594;   52.948;   -8.831;  788.185
332.191;   56.686;   -7.621;  728.722
332.787;   61.238;   -4.591;  844.463
333.384;   59.179;   -7.412;  763.093
333.981;   57.756;   -8.293;  815.687
334.578;   60.740;   -7.052;  708.378
335.174;   63.570;   -3.102;  731.469
335.771;   63.455;   -5.943;  836.456
336.367;   60.390;   -7.393;  710.631
336.964;   63.736;   -4.063;  793.266
337.561;   61.552;   -3.813;  731.112
338.157;   57.681;   -4.654;  911.916
338.754;   55.452;   -7.934;  796.589
339.350;   52.964;   -4.414;  722.493
339.946;   55.581;   -4.664;  773.135
340.543;   47.649;   -6.375;  846.136
341.139;   41.953;   -9.815;  720.836
341.735;   39.509;   -4.526;  772.593
342.332;   37.798;   -4.895;  691.472
342.928;   38.892;   -4.295;  795.394
343.524;   32.776;   -5.476;  761.684
344.120;   29.076;   -5.856;  738.562
344.716;   31.894;   -2.155;  723.717
345.313;   29.363;   -6.275;  795.342
345.909;   24.800;   -8.815;  627.336
346.505;   26.228;   -5.305;  740.247
347.101;   26.610;   -2.674;  827.864
347.697;   27.022;   -4.344;  785.398
348.293;   21.661;   -9.975;  627.244
348.889;   23.028;   -5.774;  745.914
349.485;   22.228;   -5.004;  688.205
350.081;   22.726;   -4.704;  772.592
350.676;   17.871;   -6.635;  691.606
351.272;   22.321;   -4.504;  809.530
351.868;   21.915;   -3.914;  780.497
352.464;   18.923;   -9.044;  723.932
353.059;   15.166;   -8.314;  646.017
353.655;   19.200;   -7.024;  777.063
354.251;   19.407;   -5.343;  759.845
354.846;   14.617;   -8.604;  740.646
355.442;   12.042;   -6.945;  753.071
356.038;   14.068;   -7.564;  751.708
356.633;   14.581;   -5.814;  728.594
357.229;   11.793;   -7.364;  724.757
357.824;   10.528;   -8.024;  703.600
358.420;    9.502;   -9.384;  679.726
359.015;   10.287;   -5.104;  695.357
359.610;   11.275;   -6.854;  763.920
360.206;    4.875;  -10.185;  603.240
360.801;    8.009;   -7.054;  646.503
361.396;   10.116;   -5.034;  725.975
361.992;    5.658;   -8.284;  668.220
362.587;    2.999;   -8.625;  670.160
363.182;    4.722;   -7.674;  689.631
363.777;    5.802;   -5.164;  738.242
364.372;    5.730;   -8.604;  737.314
364.967;    1.306;   -9.055;  680.744
365.563;    5.656;   -6.114;  815.567
366.158;    2.935;   -5.814;  685.161
366.753;    3.537;   -7.854;  649.263
367.348;    1.739;   -7.804;  746.056
367.942;    1.357;   -7.954;  697.298
368.537;    0.691;   -4.984;  754.245
369.132;    1.124;   -8.564;  703.428
369.727;   -3.191;   -8.855;  638.079
370.322;   -1.461;   -6.245;  580.186
370.917;   -2.344;   -6.425;  710.646
371.511;   -0.173;   -6.294;  861.834
372.106;   -3.229;   -7.685;  776.964
372.701;   -5.768;   -7.335;  585.988
373.296;   -0.065;   -4.564;  863.135
373.890;   -5.131;  -10.235;  647.840
374.485;   -7.528;   -7.885;  691.199
375.079;   -2.942;   -7.324;  738.685
375.674;   -2.327;   -3.494;  812.970
376.268;   -6.715;   -8.525;  691.759
376.863;  -11.837;  -10.086;  580.327
377.457;   -5.963;   -7.025;  662.490
378.052;   -8.220;   -3.585;  764.884
378.646;   -8.569;   -7.595;  741.167
379.240;   -8.898;   -8.335;  721.176
379.835;   -8.213;   -5.785;  636.978
380.429;   -9.707;   -4.335;  562.557
381.023;   -9.849;   -6.805;  779.205
381.617;  -12.548;   -9.195;  680.106
382.212;   -8.775;   -6.905;  685.303
382.806;   -7.998;   -3.745;  760.690
383.400;  -12.762;   -7.745;  672.281
383.994;  -13.345;   -9.765;  664.870
384.588;   -9.931;   -6.564;  697.701
385.182;   -7.782;   -5.344;  726.624
385.776;  -10.554;   -8.514;  706.875
386.370;  -12.779;   -9.555;  681.968
386.964;  -11.389;   -8.715;  684.155
387.558;  -10.758;   -6.174;  598.360
388.152;  -13.625;   -8.725;  681.959
388.745;  -12.225;   -7.965;  814.707
389.339;   -9.945;   -5.924;  747.642
389.933;   -8.870;   -5.524;  695.370
390.527;  -10.547;   -7.114;  859.029
391.120;  -16.978;  -10.725;  595.318
391.714;  -13.143;   -8.035;  711.633
392.308;  -11.217;   -3.574;  780.253
392.901;  -14.713;   -7.245;  642.460
393.495;  -16.207;   -9.285;  595.414
394.089;  -13.554;   -5.895;  760.452
394.682;  -14.309;   -4.295;  697.188
395.275;  -15.729;   -9.875;  719.927
395.869;  -16.630;   -8.485;  667.314
396.462;  -15.388;   -7.455;  616.609
397.056;  -10.472;   -5.424;  776.621
397.649;  -15.648;   -6.605;  731.575
398.242;  -12.999;   -8.224;  712.645
398.836;  -11.618;   -7.474;  766.408
399.429;  -13.620;   -7.094;  631.041
400.022;  -17.032;   -9.475;  665.902
400.615;  -15.079;   -7.145;  805.609
401.208;  -12.418;   -7.174;  691.451
401.802;  -14.889;   -5.515;  699.329
402.395;  -15.642;   -9.875;  683.502
402.988;  -17.003;   -8.845;  696.627
403.581;  -13.399;   -8.874;  646.878
404.174;  -11.408;   -5.324;  686.568
404.767;  -14.120;   -9.575;  638.583
405.360;  -17.060;  -10.965;  621.445
405.953;  -11.640;   -8.764;  759.034
406.545;  -10.616;   -7.514;  725.342
407.138;  -15.639;  -10.025;  618.350
407.731;  -13.307;  -10.034;  613.303
408.324;   -9.527;   -9.374;  660.554
408.917;  -10.475;   -6.534;  681.864
409.509;  -12.908;   -8.004;  740.396
410.102;  -14.330;   -9.875;  643.948
410.695;   -8.495;   -8.604;  665.758
411.287;  -10.170;   -6.794;  599.821
411.880;  -10.729;   -9.334;  585.421
412.472;  -13.515;  -10.254;  613.092
413.065;  -10.857;   -6.714;  629.408
413.657;   -9.026;   -7.234;  576.678
414.250;   -8.001;  -10.544;  646.681
414.842;  -11.204;   -9.744;  676.353
415.434;   -8.673;   -6.994;  570.463
416.027;   -3.930;   -5.893;  652.196
416.619;   -6.273;   -7.264;  713.400
417.211;   -7.559;  -10.374;  599.352
417.804;   -3.146;   -7.993;  628.499
418.396;   -6.832;   -7.234;  607.643
418.988;   -4.602;   -9.443;  659.238
419.580;   -8.761;  -10.724;  568.276
420.172;   -6.170;  -10.323;  536.196
420.764;   -2.103;   -8.793;  672.482
421.356;   -2.688;  -11.143;  636.898
421.948;   -3.809;   -8.293;  677.661
422.540;    0.533;   -7.893;  680.027
423.132;    0.054;   -7.082;  600.641
423.724;   -2.803;   -8.653;  561.267
424.316;   -1.081;  -10.213;  621.345
424.908;    2.251;   -9.762;  591.517
425.500;    3.218;   -5.572;  647.978
426.092;    3.037;   -8.422;  648.268
426.683;    2.395;   -9.283;  684.836
427.275;    5.301;   -7.852;  641.471
427.867;    6.813;   -5.272;  668.948
428.458;    7.204;   -7.682;  732.344
429.050;    5.478;  -10.612;  680.749
429.642;    8.054;   -9.882;  743.124
430.233;    8.954;   -6.962;  569.356
430.825;    9.161;   -6.842;  724.809
431.416;    6.448;   -9.672;  698.241
432.008;   10.962;   -6.552;  651.723
432.599;   11.829;   -6.891;  656.073
433.190;    8.289;  -10.912;  637.670
433.782;    7.501;  -11.172;  590.395
434.373;   14.712;   -6.061;  884.765
434.964;   13.575;   -8.251;  602.920
435.556;   11.299;   -9.722;  634.537
436.147;   14.120;   -9.082;  758.490
436.738;   14.630;   -8.041;  701.099
437.329;   19.170;   -7.341;  721.723
437.920;   12.333;   -8.162;  666.688
438.511;   12.166;  -11.802;  564.526
439.103;   18.569;  -10.191;  623.998
439.694;   20.464;   -7.601;  681.583
440.285;   21.424;   -8.541;  764.432
440.876;   19.518;   -9.751;  845.738
441.466;   19.007;   -9.401;  575.162
442.057;   23.863;   -7.760;  665.814
442.648;   23.621;   -9.971;  746.255
443.239;   20.894;  -11.001;  620.477
443.830;   25.883;   -7.990;  704.958
444.421;   28.043;   -7.910;  655.474
445.011;   24.653;   -8.131;  693.619
445.602;   24.381;   -7.111;  743.126
446.193;   26.058;  -10.920;  488.117
446.783;   30.528;   -6.500;  640.397
447.374;   25.839;   -8.671;  692.759
447.964;   26.595;  -10.781;  713.770
448.555;   35.224;   -9.650;  822.742
449.145;   31.563;   -8.660;  662.853
449.736;   31.908;   -8.990;  803.179
450.326;   31.852;   -9.500;  713.626
450.917;   37.513;   -8.680;  675.324
451.507;   36.465;   -7.520;  600.661
452.097;   36.581;   -8.590;  746.267
452.688;   38.172;  -11.340;  742.160
453.278;   36.995;  -10.100;  566.840
453.868;   42.286;   -6.019;  793.550
454.458;   39.616;   -9.440;  651.141
455.048;   39.823;  -10.560;  711.783
455.639;   41.885;  -11.799;  567.096
456.229;   45.387;   -6.899;  710.694
456.819;   47.374;   -7.389;  751.158
457.409;   46.964;  -11.119;  773.993
457.999;   49.928;   -9.289;  737.505
458.589;   50.267;   -6.139;  686.606
459.179;   50.015;   -8.729;  717.658
459.769;   47.841;   -9.789;  627.099
460.358;   52.408;  -10.259;  797.262
460.948;   52.497;   -7.299;  689.503
461.538;   54.479;  -10.289;  660.677
462.128;   51.827;  -11.269;  664.934
462.717;   59.021;   -9.368;  710.326
463.307;   62.335;   -7.908;  705.846
463.897;   57.125;   -9.599;  656.942
464.486;   56.487;   -9.769;  837.128
465.076;   60.760;   -8.048;  733.776
465.666;   64.684;   -9.358;  652.900
466.255;   62.874;   -7.919;  785.651
466.845;   61.408;  -11.689;  666.749
467.434;   65.039;   -7.818;  725.873
468.023;   66.736;   -7.678;  658.357
468.613;   63.312;  -10.939;  713.946
469.202;   67.880;  -10.118;  646.507
469.791;   71.706;   -9.108;  737.811
470.381;   72.815;   -6.058;  742.813
470.970;   73.179;  -10.428;  711.099
471.559;   72.711;  -10.268;  733.291
472.148;   75.528;   -8.448;  675.737
472.738;   78.899;   -6.917;  765.466
473.327;   77.931;  -11.978;  637.529
473.916;   78.026;  -11.888;  737.446
474.505;   82.391;   -9.437;  751.703
475.094;   85.221;   -6.747;  806.570
475.683;   83.953;   -9.367;  797.699
476.272;   84.685;  -12.637;  730.632
476.861;   87.860;  -10.027;  706.754
477.449;   94.419;   -8.716;  728.487
478.038;   88.967;   -9.577;  692.513
478.627;   89.984;   -9.718;  714.852
479.216;   95.890;   -8.947;  769.441
479.805;   99.603;   -6.256;  783.375
480.393;   99.543;   -7.937; 1008.945
480.982;   97.812;   -7.717;  874.501
481.571;  104.264;   -9.266;  858.333
482.159;  105.130;   -7.636;  705.386
482.748;  105.288;   -9.667;  821.385
483.336;  108.301;  -10.376;  858.209
483.925;  110.178;   -7.147;  774.373
484.513;  116.310;   -7.996;  758.962
485.102;  112.936;  -10.027;  810.965
485.690;  121.986;  -10.446; 1011.050
486.278;  123.400;   -8.446;  979.329
486.867;  123.905;   -6.356;  809.662
487.455;  125.775;   -9.136;  898.229
488.043;  126.460;  -10.646;  748.361
488.631;  135.352;   -7.456; 1005.079
489.220;  139.107;   -6.636;  908.626
489.808;  139.185;  -11.036;  741.415
490.396;  147.324;  -10.246;  914.645
490.984;  153.636;   -8.556;  830.161
491.572;  162.825;   -5.886;  940.315
492.160;  168.686;   -9.486;  919.081
492.748;  179.604;  -10.976;  884.341
493.336;  201.878;   -8.776; 1019.693
493.924;  226.942;   -5.465;  958.077
494.512;  252.532;   -9.986; 1066.638
495.100;  288.000;  -10.636; 1103.280
495.687;  341.676;  -10.885; 1206.373
496.275;  400.982;   -8.126; 1150.796
496.863;  469.306;  -10.586; 1281.171
497.451;  567.245;  -11.926; 1386.805
498.038;  689.519;  -10.885; 1556.729
498.626;  790.837;   -6.315; 1741.407
499.214;  932.022;   -7.326; 2016.609
499.801; 1113.708;  -11.906; 2220.633
500.389; 1352.279;  -10.466; 2312.494
500.976; 1644.263;   -5.236; 2744.849
501.564; 2058.614;   -8.936; 3148.565
502.151; 2410.645;  -13.176; 3515.999
502.738; 2834.893;  -10.646; 3971.274
503.326; 3216.636;   -9.525; 4403.796
503.913; 3585.017;  -10.856; 5161.749
504.500; 3930.081;  -11.586; 5986.420
505.088; 4325.455;  -10.336; 6381.201
505.675; 4825.137;   -6.355; 6925.547
506.262; 5522.872;   -9.046; 7619.060
506.849; 6210.948;  -10.416; 8733.969
507.436; 6649.266;  -10.305; 9790.121
508.023; 7195.301;   -5.496; 9985.472
508.610; 7468.008;   -7.856;10434.618
509.197; 8107.808;  -10.097;11198.435
509.784; 9423.505;  -10.886;12391.194
510.371;10423.780;   -9.315;13603.713
510.958;11161.867;   -9.936;14426.586
511.545;11938.174;   -9.326;15243.775
512.132;12767.283;  -10.075;15945.876
512.719;13286.288;   -7.796;16340.369
513.305;14169.848;  -10.606;18011.766
513.892;14864.637;  -11.486;19754.971
514.479;16180.049;   -9.126;20967.805
515.066;17737.996;   -6.026;22299.793
515.652;19042.154;   -8.466;22908.660
516.239;20263.283;  -10.886;23798.875
516.825;21284.119;  -11.496;25567.275
517.412;22299.688;   -5.796;28154.959
517.998;22827.721;  -10.506;28344.111
518.585;22880.535;  -10.076;27134.219
519.171;23451.377;   -8.315;27268.576
519.758;24865.414;   -8.596;28964.129
520.344;26755.557;   -8.466;30664.494
520.930;26855.082;  -11.006;32550.605
521.516;28137.660;  -10.495;35422.895
522.103;30397.441;   -5.526;38280.004
522.689;30923.197;   -8.746;37835.117
523.275;30577.787;  -11.376;37288.613
523.861;31991.867;  -11.156;37281.395
524.447;33301.617;   -8.135;37846.949
525.033;33100.160;   -7.896;38321.949
525.619;33377.582;  -12.476;38579.285
526.205;34971.875;   -9.516;40622.875
526.791;37111.793;   -6.926;42258.836
527.377;37435.746;   -8.346;42966.902
527.963;38959.898;   -8.717;42018.949
528.549;37496.988;  -11.016;42476.828
529.135;36299.051;   -8.536;41854.852
529.721;35639.613;   -9.666;41237.711
530.306;34893.078;  -10.066;41259.445
530.892;34786.031;  -11.356;41506.047
531.478;36164.273;   -6.596;43559.613
532.063;39143.027;   -8.836;47695.563
532.649;39624.180;  -10.047;50808.324
533.235;40455.332;   -9.746;51787.500
533.820;41006.340;   -6.566;52145.035
534.406;42421.805;  -10.817;51133.488
534.991;42152.754;   -9.416;49996.805
535.576;40817.449;   -9.036;48882.852
536.162;41449.137;   -6.156;46942.285
536.747;42293.480;  -11.607;45711.746
537.333;45815.582;  -11.787;48510.180
537.918;48860.902;  -12.437;50439.891
538.503;47658.180;   -7.196;50863.711
539.088;44310.199;  -10.556;50906.922
539.673;44032.207;   -8.767;52621.965
540.259;44183.234;  -10.026;52368.094
540.844;41796.391;   -7.416;50879.109
541.429;42902.242;   -9.467;52077.777
542.014;45587.414;   -9.527;52716.695
542.599;45036.637;   -9.946;52363.281
543.184;42824.297;   -7.927;53187.137
543.769;44101.133;   -9.297;54697.605
544.354;43655.984;  -10.127;53913.914
544.938;42447.867;   -9.267;49680.164
545.523;44338.734;   -6.506;47386.277
546.108;47074.328;   -9.787;49151.949
546.693;48928.566;  -11.587;51384.637
547.278;48494.891;  -10.986;51853.254
547.862;45665.016;   -8.206;51173.750
548.447;41440.211;  -10.067;51691.395
549.031;41052.242;   -9.637;52456.703
549.616;45891.055;   -9.926;52714.516
550.201;45201.719;   -6.347;52414.598
550.785;46249.113;   -7.917;52355.059
551.370;45527.934;  -10.867;54589.453
551.954;44986.070;   -9.047;58267.348
552.538;45809.410;   -7.827;59062.176
553.123;44224.836;  -10.287;58115.285
553.707;41959.570;  -12.178;56556.285
554.291;43254.520;   -8.717;56201.668
554.876;45530.910;   -7.457;55335.762
555.460;45664.816;  -10.387;54155.703
556.044;46579.578;   -9.618;53721.484
556.628;45331.973;  -11.567;53731.016
557.212;44233.738;   -8.097;54312.531
557.796;42760.465;  -11.077;53797.773
558.380;42669.398;  -11.108;56145.984
558.964;42988.277;   -9.057;57277.930
559.548;44257.672;   -6.977;56459.641
560.132;42712.898;  -11.457;54434.543
560.716;41321.996;  -11.378;54800.617
561.300;42324.344;   -9.577;57606.945
561.884;43450.328;   -7.127;58972.445
562.467;41896.563;   -7.118;57327.570
563.051;41309.656;  -13.358;54962.434
563.635;42304.449;  -10.178;52594.473
564.219;42330.363;   -7.837;50610.410
564.802;43058.406;  -11.398;49551.180
565.386;43000.973;  -12.788;48370.953
565.969;42331.250;   -9.077;48178.871
566.553;41631.480;   -6.207;49957.305
567.136;42175.445;   -8.568;50369.594
567.720;38758.242;  -11.868;49492.004
568.303;36753.711;   -8.268;50616.352
568.887;36817.609;   -8.698;50727.148
569.470;37089.555;   -6.808;51698.379
570.053;35773.859;  -13.188;52122.078
570.637;34389.031;  -12.037;52536.438
571.220;34255.273;   -8.577;51186.098
571.803;34854.969;   -8.498;51032.762
572.386;36795.824;  -10.498;49609.887
572.969;39085.328;   -9.388;48285.926
573.552;37341.086;   -8.338;47624.285
574.135;36121.238;   -8.518;45498.641
574.718;33800.398;  -13.628;41970.434
575.301;32812.805;  -10.893;41447.137
575.884;31825.211;   -8.158;40923.836
576.467;32886.070;  -10.328;45267.723
577.050;34491.750;  -13.058;48175.543
577.633;35615.594;   -9.458;47729.328
578.216;34385.137;   -8.928;47579.793
578.799;32977.652;   -9.358;47820.996
579.381;31678.738;  -11.388;48115.551
579.964;30417.092;  -11.718;47333.766
580.547;32731.732;   -8.588;46668.969
581.129;34283.340;   -8.859;44466.141
581.712;35255.004;  -10.729;44164.922
582.294;35851.625;  -11.118;46477.855
582.877;35608.598;   -5.218;48244.254
583.459;33117.707;   -8.679;47437.895
584.042;31181.604;  -10.709;46943.219
584.624;31710.652;  -11.669;46792.227
585.206;31128.344;   -8.218;46557.250
585.789;30839.020;  -10.569;45793.773
586.371;33069.641;  -11.859;43836.391
586.953;33042.145;  -10.719;42972.492
587.536;33067.684;   -7.198;42487.211
588.118;31416.012;   -8.720;42086.414
588.700;26588.217;  -10.439;43389.930
589.282;26218.863;   -9.198;43646.039
589.864;29704.783;   -9.199;43438.109
590.446;33062.102;  -11.319;43151.926
591.028;34081.824;  -11.159;42781.867
591.610;33443.820;  -11.779;42839.098
592.192;31002.793;   -7.668;42820.402
592.774;29472.443;  -11.949;40724.277
593.356;28181.533;  -12.129;39874.789
593.937;27094.180;  -10.669;39980.648
594.519;29145.098;   -6.509;42069.633
595.101;31323.604;  -10.849;42976.031
