
Integration time [ms]:   3.276
Averaging Nr. [scans]: 1000
Smoothing Nr. [pixels]: 0
Data measured with spectrometer [name]: 7414430SP
Wave   ;Sample   ;Dark     ;Reference
[nm]   ;[counts] ;[counts] ;[counts] 

288.544;  150.194;    7.793;  793.890
289.143;  154.289;    7.462;  681.602
289.742;  154.225;    8.602;  828.814
290.341;  139.507;    1.321;  789.841
290.940;  128.058;   -0.709;  730.702
291.538;  130.595;    0.881;  881.108
292.137;  130.109;    0.122;  792.581
292.736;  134.067;   -1.929;  975.101
293.335;  130.401;   -8.229;  735.086
293.934;  130.546;   -5.279;  781.677
294.532;  129.239;   -1.369; 1031.958
295.131;  114.785;   -7.641;  834.394
295.730;  115.351;   -8.420;  809.588
296.328;  114.697;   -5.611;  783.442
296.927;  115.468;   -5.781;  779.652
297.525;  116.582;   -6.361;  781.236
298.124;  106.908;  -11.382;  654.009
298.722;  110.811;   -7.641;  761.933
299.321;  109.047;   -6.811;  708.597
299.919;  106.368;   -6.991;  751.918
300.518;  103.347;  -10.362;  689.338
301.116;  105.513;   -9.581;  691.381
301.715;  104.353;   -4.891;  730.222
302.313;  103.439;   -8.801;  704.943
302.911;   99.613;   -8.522;  733.830
303.509;  104.805;   -6.171;  925.627
304.108;  103.208;   -7.311;  760.383
304.706;  101.952;   -8.321;  801.664
305.304;   96.465;  -10.222;  796.707
305.902;  102.297;   -6.021;  784.484
306.500;   97.125;   -4.971;  728.200
307.098;   95.547;   -7.061;  746.560
307.696;   93.375;   -8.801;  780.432
308.294;   94.472;   -6.411;  731.359
308.892;   96.907;   -2.901;  759.769
309.490;   92.085;   -5.041;  712.161
310.088;   91.310;   -5.002;  788.444
310.686;   95.338;   -2.041;  821.749
311.284;   90.181;   -2.351;  766.040
311.882;   88.407;   -4.422;  731.225
312.480;   86.075;   -4.192;  697.167
313.078;   88.230;   -1.172;  808.331
313.675;   87.711;   -2.601;  691.600
314.273;   83.106;   -1.312;  797.837
314.871;   82.927;   -3.942;  589.829
315.468;   80.106;   -2.802;  652.090
316.066;   83.085;   -0.701;  694.427
316.664;   76.282;   -4.362;  656.351
317.261;   79.137;   -2.872;  910.128
317.859;   75.954;   -2.022;  768.735
318.456;   76.764;   -0.531;  830.096
319.054;   71.834;   -3.912;  787.828
319.651;   70.449;   -4.752;  759.928
320.249;   70.394;   -2.602;  810.188
320.846;   68.389;   -0.821;  714.286
321.443;   64.766;   -4.642;  832.135
322.041;   61.883;   -5.002;  812.315
322.638;   60.606;   -3.982;  701.456
323.235;   61.343;   -3.411;  665.683
323.833;   58.677;   -7.361;  740.354
324.430;   54.083;   -8.611;  615.900
325.027;   54.868;   -4.061;  876.855
325.624;   54.969;   -4.031;  644.532
326.221;   52.040;   -7.481;  689.717
326.818;   51.022;   -5.281;  818.332
327.415;   55.581;   -7.460;  748.828
328.012;   53.782;   -5.510;  690.585
328.609;   51.869;   -7.880;  731.389
329.206;   50.584;   -8.331;  778.621
329.803;   51.138;   -5.121;  737.841
330.400;   53.946;   -4.510;  704.260
330.997;   54.940;   -6.441;  817.147
331.594;   53.758;   -8.831;  788.185
332.191;   59.710;   -7.621;  728.722
332.787;   61.812;   -4.591;  844.463
333.384;   59.657;   -7.412;  763.093
333.981;   58.420;   -8.293;  815.687
334.578;   61.961;   -7.052;  708.378
335.174;   65.389;   -3.102;  731.469
335.771;   63.321;   -5.943;  836.456
336.367;   60.551;   -7.393;  710.631
336.964;   64.865;   -4.063;  793.266
337.561;   62.699;   -3.813;  731.112
338.157;   58.013;   -4.654;  911.916
338.754;   56.078;   -7.934;  796.589
339.350;   54.896;   -4.414;  722.493
339.946;   55.706;   -4.664;  773.135
340.543;   48.434;   -6.375;  846.136
341.139;   42.505;   -9.815;  720.836
341.735;   41.228;   -4.526;  772.593
342.332;   39.517;   -4.895;  691.472
342.928;   39.416;   -4.295;  795.394
343.524;   33.726;   -5.476;  761.684
344.120;   31.047;   -5.856;  738.562
344.716;   33.319;   -2.155;  723.717
345.313;   31.416;   -6.275;  795.342
345.909;   26.114;   -8.815;  627.336
346.505;   28.223;   -5.305;  740.247
347.101;   29.327;   -2.674;  827.864
347.697;   28.052;   -4.344;  785.398
348.293;   23.696;   -9.975;  627.244
348.889;   24.900;   -5.774;  745.914
349.485;   24.330;   -5.004;  688.205
350.081;   23.773;   -4.704;  772.592
350.676;   19.462;   -6.635;  691.606
351.272;   24.763;   -4.504;  809.530
351.868;   23.545;   -3.914;  780.497
352.464;   20.998;   -9.044;  723.932
353.059;   16.786;   -8.314;  646.017
353.655;   20.081;   -7.024;  777.063
354.251;   22.283;   -5.343;  759.845
354.846;   16.368;   -8.604;  740.646
355.442;   13.407;   -6.945;  753.071
356.038;   16.022;   -7.564;  751.708
356.633;   16.261;   -5.814;  728.594
357.229;   13.860;   -7.364;  724.757
357.824;   12.305;   -8.024;  703.600
358.420;   11.526;   -9.384;  679.726
359.015;   12.338;   -5.104;  695.357
359.610;   12.822;   -6.854;  763.920
360.206;    6.900;  -10.185;  603.240
360.801;   10.001;   -7.054;  646.503
361.396;   12.963;   -5.034;  725.975
361.992;    7.777;   -8.284;  668.220
362.587;    4.982;   -8.625;  670.160
363.182;    7.782;   -7.674;  689.631
363.777;    7.672;   -5.164;  738.242
364.372;    6.338;   -8.604;  737.314
364.967;    3.442;   -9.055;  680.744
365.563;    8.355;   -6.114;  815.567
366.158;    5.309;   -5.814;  685.161
366.753;    5.322;   -7.854;  649.263
367.348;    3.636;   -7.804;  746.056
367.942;    3.462;   -7.954;  697.298
368.537;    3.122;   -4.984;  754.245
369.132;    3.054;   -8.564;  703.428
369.727;   -1.033;   -8.855;  638.079
370.322;    1.156;   -6.245;  580.186
370.917;    0.334;   -6.425;  710.646
371.511;    3.351;   -6.294;  861.834
372.106;   -1.062;   -7.685;  776.964
372.701;   -2.846;   -7.335;  585.988
373.296;    2.511;   -4.564;  863.135
373.890;   -3.290;  -10.235;  647.840
374.485;   -4.520;   -7.885;  691.199
375.079;   -1.124;   -7.324;  738.685
375.674;    0.204;   -3.494;  812.970
376.268;   -4.101;   -8.525;  691.759
376.863;   -9.955;  -10.086;  580.327
377.457;   -3.167;   -7.025;  662.490
378.052;   -5.138;   -3.585;  764.884
378.646;   -6.594;   -7.595;  741.167
379.240;   -6.686;   -8.335;  721.176
379.835;   -5.214;   -5.785;  636.978
380.429;   -6.764;   -4.335;  562.557
381.023;   -8.286;   -6.805;  779.205
381.617;  -10.095;   -9.195;  680.106
382.212;   -5.866;   -6.905;  685.303
382.806;   -5.523;   -3.745;  760.690
383.400;  -10.439;   -7.745;  672.281
383.994;  -10.416;   -9.765;  664.870
384.588;   -6.190;   -6.564;  697.701
385.182;   -5.685;   -5.344;  726.624
385.776;   -7.527;   -8.514;  706.875
386.370;  -10.924;   -9.555;  681.968
386.964;   -8.384;   -8.715;  684.155
387.558;   -7.023;   -6.174;  598.360
388.152;  -11.666;   -8.725;  681.959
388.745;   -8.971;   -7.965;  814.707
389.339;   -6.165;   -5.924;  747.642
389.933;   -6.465;   -5.524;  695.370
390.527;   -8.116;   -7.114;  859.029
391.120;  -13.578;  -10.725;  595.318
391.714;  -10.589;   -8.035;  711.633
392.308;   -6.959;   -3.574;  780.253
392.901;  -11.440;   -7.245;  642.460
393.495;  -12.813;   -9.285;  595.414
394.089;  -10.392;   -5.895;  760.452
394.682;  -11.428;   -4.295;  697.188
395.275;  -12.925;   -9.875;  719.927
395.869;  -13.130;   -8.485;  667.314
396.462;  -10.844;   -7.455;  616.609
397.056;   -7.366;   -5.424;  776.621
397.649;  -12.662;   -6.605;  731.575
398.242;  -10.571;   -8.224;  712.645
398.836;   -9.129;   -7.474;  766.408
399.429;  -10.444;   -7.094;  631.041
400.022;  -14.322;   -9.475;  665.902
400.615;  -10.841;   -7.145;  805.609
401.208;   -8.447;   -7.174;  691.451
401.802;  -11.778;   -5.515;  699.329
402.395;  -12.703;   -9.875;  683.502
402.988;  -13.313;   -8.845;  696.627
403.581;  -10.453;   -8.874;  646.878
404.174;   -7.840;   -5.324;  686.568
404.767;  -11.351;   -9.575;  638.583
405.360;  -13.189;  -10.965;  621.445
405.953;   -7.770;   -8.764;  759.034
406.545;   -7.057;   -7.514;  725.342
407.138;  -12.127;  -10.025;  618.350
407.731;  -10.276;  -10.034;  613.303
408.324;   -6.188;   -9.374;  660.554
408.917;   -6.683;   -6.534;  681.864
409.509;   -9.862;   -8.004;  740.396
410.102;  -11.129;   -9.875;  643.948
410.695;   -4.882;   -8.604;  665.758
411.287;   -6.250;   -6.794;  599.821
411.880;   -7.732;   -9.334;  585.421
412.472;  -10.591;  -10.254;  613.092
413.065;   -6.990;   -6.714;  629.408
413.657;   -4.576;   -7.234;  576.678
414.250;   -5.070;  -10.544;  646.681
414.842;   -6.328;   -9.744;  676.353
415.434;   -4.458;   -6.994;  570.463
416.027;   -0.164;   -5.893;  652.196
416.619;   -2.709;   -7.264;  713.400
417.211;   -3.537;  -10.374;  599.352
417.804;    0.786;   -7.993;  628.499
418.396;   -2.575;   -7.234;  607.643
418.988;   -1.549;   -9.443;  659.238
419.580;   -4.710;  -10.724;  568.276
420.172;   -1.712;  -10.323;  536.196
420.764;    1.458;   -8.793;  672.482
421.356;    0.839;  -11.143;  636.898
421.948;   -0.445;   -8.293;  677.661
422.540;    5.093;   -7.893;  680.027
423.132;    4.755;   -7.082;  600.641
423.724;    0.633;   -8.653;  561.267
424.316;    2.571;  -10.213;  621.345
424.908;    6.627;   -9.762;  591.517
425.500;    7.544;   -5.572;  647.978
426.092;    7.822;   -8.422;  648.268
426.683;    6.344;   -9.283;  684.836
427.275;    9.985;   -7.852;  641.471
427.867;   10.984;   -5.272;  668.948
428.458;   10.943;   -7.682;  732.344
429.050;   10.353;  -10.612;  680.749
429.642;   12.956;   -9.882;  743.124
430.233;   12.922;   -6.962;  569.356
430.825;   13.516;   -6.842;  724.809
431.416;   11.183;   -9.672;  698.241
432.008;   15.114;   -6.552;  651.723
432.599;   15.505;   -6.891;  656.073
433.190;   12.536;  -10.912;  637.670
433.782;   11.994;  -11.172;  590.395
434.373;   20.116;   -6.061;  884.765
434.964;   17.708;   -8.251;  602.920
435.556;   15.494;   -9.722;  634.537
436.147;   18.633;   -9.082;  758.490
436.738;   19.002;   -8.041;  701.099
437.329;   24.284;   -7.341;  721.723
437.920;   17.074;   -8.162;  666.688
438.511;   16.700;  -11.802;  564.526
439.103;   23.207;  -10.191;  623.998
439.694;   25.423;   -7.601;  681.583
440.285;   25.652;   -8.541;  764.432
440.876;   23.589;   -9.751;  845.738
441.466;   24.350;   -9.401;  575.162
442.057;   29.699;   -7.760;  665.814
442.648;   28.055;   -9.971;  746.255
443.239;   25.672;  -11.001;  620.477
443.830;   31.779;   -7.990;  704.958
444.421;   33.782;   -7.910;  655.474
445.011;   29.398;   -8.131;  693.619
445.602;   29.793;   -7.111;  743.126
446.193;   31.192;  -10.920;  488.117
446.783;   36.522;   -6.500;  640.397
447.374;   30.941;   -8.671;  692.759
447.964;   31.767;  -10.781;  713.770
448.555;   40.711;   -9.650;  822.742
449.145;   37.367;   -8.660;  662.853
449.736;   37.319;   -8.990;  803.179
450.326;   37.514;   -9.500;  713.626
450.917;   43.046;   -8.680;  675.324
451.507;   41.799;   -7.520;  600.661
452.097;   42.881;   -8.590;  746.267
452.688;   43.146;  -11.340;  742.160
453.278;   43.626;  -10.100;  566.840
453.868;   47.418;   -6.019;  793.550
454.458;   45.582;   -9.440;  651.141
455.048;   46.118;  -10.560;  711.783
455.639;   48.420;  -11.799;  567.096
456.229;   51.856;   -6.899;  710.694
456.819;   53.341;   -7.389;  751.158
457.409;   53.153;  -11.119;  773.993
457.999;   56.421;   -9.289;  737.505
458.589;   56.937;   -6.139;  686.606
459.179;   56.671;   -8.729;  717.658
459.769;   54.273;   -9.789;  627.099
460.358;   59.548;  -10.259;  797.262
460.948;   59.553;   -7.299;  689.503
461.538;   61.190;  -10.289;  660.677
462.128;   59.236;  -11.269;  664.934
462.717;   65.772;   -9.368;  710.326
463.307;   68.522;   -7.908;  705.846
463.897;   63.118;   -9.599;  656.942
464.486;   63.627;   -9.769;  837.128
465.076;   68.306;   -8.048;  733.776
465.666;   72.683;   -9.358;  652.900
466.255;   69.655;   -7.919;  785.651
466.845;   68.769;  -11.689;  666.749
467.434;   72.371;   -7.818;  725.873
468.023;   72.523;   -7.678;  658.357
468.613;   70.213;  -10.939;  713.946
469.202;   75.198;  -10.118;  646.507
469.791;   79.069;   -9.108;  737.811
470.381;   81.045;   -6.058;  742.813
470.970;   80.439;  -10.428;  711.099
471.559;   79.894;  -10.268;  733.291
472.148;   84.541;   -8.448;  675.737
472.738;   86.623;   -6.917;  765.466
473.327;   85.790;  -11.978;  637.529
473.916;   85.467;  -11.888;  737.446
474.505;   90.538;   -9.437;  751.703
475.094;   93.598;   -6.747;  806.570
475.683;   91.651;   -9.367;  797.699
476.272;   93.835;  -12.637;  730.632
476.861;   96.499;  -10.027;  706.754
477.449;  103.601;   -8.716;  728.487
478.038;   97.235;   -9.577;  692.513
478.627;   98.423;   -9.718;  714.852
479.216;  105.798;   -8.947;  769.441
479.805;  109.162;   -6.256;  783.375
480.393;  107.870;   -7.937; 1008.945
480.982;  106.981;   -7.717;  874.501
481.571;  113.653;   -9.266;  858.333
482.159;  114.612;   -7.636;  705.386
482.748;  114.193;   -9.667;  821.385
483.336;  118.115;  -10.376;  858.209
483.925;  119.930;   -7.147;  774.373
484.513;  127.074;   -7.996;  758.962
485.102;  123.467;  -10.027;  810.965
485.690;  132.658;  -10.446; 1011.050
486.278;  134.623;   -8.446;  979.329
486.867;  135.485;   -6.356;  809.662
487.455;  137.077;   -9.136;  898.229
488.043;  137.923;  -10.646;  748.361
488.631;  148.070;   -7.456; 1005.079
489.220;  150.983;   -6.636;  908.626
489.808;  151.717;  -11.036;  741.415
490.396;  159.827;  -10.246;  914.645
490.984;  166.330;   -8.556;  830.161
491.572;  177.351;   -5.886;  940.315
492.160;  182.636;   -9.486;  919.081
492.748;  196.538;  -10.976;  884.341
493.336;  219.899;   -8.776; 1019.693
493.924;  249.173;   -5.465;  958.077
494.512;  278.154;   -9.986; 1066.638
495.100;  319.738;  -10.636; 1103.280
495.687;  377.252;  -10.885; 1206.373
496.275;  445.794;   -8.126; 1150.796
496.863;  520.901;  -10.586; 1281.171
497.451;  630.947;  -11.926; 1386.805
498.038;  769.524;  -10.885; 1556.729
498.626;  880.660;   -6.315; 1741.407
499.214; 1033.557;   -7.326; 2016.609
499.801; 1243.954;  -11.906; 2220.633
500.389; 1505.084;  -10.466; 2312.494
500.976; 1836.138;   -5.236; 2744.849
501.564; 2302.467;   -8.936; 3148.565
502.151; 2702.565;  -13.176; 3515.999
502.738; 3181.304;  -10.646; 3971.274
503.326; 3587.691;   -9.525; 4403.796
503.913; 3980.815;  -10.856; 5161.749
504.500; 4365.294;  -11.586; 5986.420
505.088; 4792.081;  -10.336; 6381.201
505.675; 5357.844;   -6.355; 6925.547
506.262; 6120.841;   -9.046; 7619.060
506.849; 6867.327;  -10.416; 8733.969
507.436; 7342.446;  -10.305; 9790.121
508.023; 7950.294;   -5.496; 9985.472
508.610; 8242.804;   -7.856;10434.618
509.197; 8933.188;  -10.097;11198.435
509.784;10399.253;  -10.886;12391.194
510.371;11491.476;   -9.315;13603.713
510.958;12269.870;   -9.936;14426.586
511.545;13109.972;   -9.326;15243.775
512.132;14090.738;  -10.075;15945.876
512.719;14712.337;   -7.796;16340.369
513.305;15680.295;  -10.606;18011.766
513.892;16436.141;  -11.486;19754.971
514.479;17837.568;   -9.126;20967.805
515.066;19448.426;   -6.026;22299.793
515.652;20769.080;   -8.466;22908.660
516.239;22241.867;  -10.886;23798.875
516.825;23492.063;  -11.496;25567.275
517.412;24610.977;   -5.796;28154.959
517.998;25154.604;  -10.506;28344.111
518.585;25190.461;  -10.076;27134.219
519.171;25799.455;   -8.315;27268.576
519.758;27301.348;   -8.596;28964.129
520.344;29237.100;   -8.466;30664.494
520.930;29405.520;  -11.006;32550.605
521.516;31054.254;  -10.495;35422.895
522.103;33594.879;   -5.526;38280.004
522.689;34182.945;   -8.746;37835.117
523.275;33606.605;  -11.376;37288.613
523.861;34857.922;  -11.156;37281.395
524.447;36222.465;   -8.135;37846.949
525.033;35894.191;   -7.896;38321.949
525.619;36116.020;  -12.476;38579.285
526.205;37954.055;   -9.516;40622.875
526.791;40340.527;   -6.926;42258.836
527.377;40626.832;   -8.346;42966.902
527.963;42317.035;   -8.717;42018.949
528.549;40547.977;  -11.016;42476.828
529.135;39306.277;   -8.536;41854.852
529.721;38816.902;   -9.666;41237.711
530.306;38129.754;  -10.066;41259.445
530.892;37894.664;  -11.356;41506.047
531.478;39371.758;   -6.596;43559.613
532.063;42371.391;   -8.836;47695.563
532.649;42653.945;  -10.047;50808.324
533.235;43767.816;   -9.746;51787.500
533.820;44623.594;   -6.566;52145.035
534.406;46201.844;  -10.817;51133.488
534.991;46047.730;   -9.416;49996.805
535.576;44504.766;   -9.036;48882.852
536.162;44915.105;   -6.156;46942.285
536.747;45902.906;  -11.607;45711.746
537.333;50159.762;  -11.787;48510.180
537.918;53064.020;  -12.437;50439.891
538.503;51346.734;   -7.196;50863.711
539.088;47968.711;  -10.556;50906.922
539.673;47859.402;   -8.767;52621.965
540.259;47645.988;  -10.026;52368.094
540.844;44891.348;   -7.416;50879.109
541.429;46043.973;   -9.467;52077.777
542.014;49121.875;   -9.527;52716.695
542.599;48596.352;   -9.946;52363.281
543.184;46421.531;   -7.927;53187.137
543.769;48017.098;   -9.297;54697.605
544.354;47176.316;  -10.127;53913.914
544.938;45764.391;   -9.267;49680.164
545.523;47691.953;   -6.506;47386.277
546.108;50316.238;   -9.787;49151.949
546.693;52532.465;  -11.587;51384.637
547.278;52179.875;  -10.986;51853.254
547.862;49109.652;   -8.206;51173.750
548.447;44551.309;  -10.067;51691.395
549.031;44098.371;   -9.637;52456.703
549.616;49195.113;   -9.926;52714.516
550.201;48271.691;   -6.347;52414.598
550.785;49443.426;   -7.917;52355.059
551.370;48562.574;  -10.867;54589.453
551.954;48267.512;   -9.047;58267.348
552.538;49124.898;   -7.827;59062.176
553.123;47518.020;  -10.287;58115.285
553.707;45278.840;  -12.178;56556.285
554.291;46412.410;   -8.717;56201.668
554.876;48477.770;   -7.457;55335.762
555.460;48902.145;  -10.387;54155.703
556.044;50287.559;   -9.618;53721.484
556.628;48860.172;  -11.567;53731.016
557.212;47434.098;   -8.097;54312.531
557.796;45846.191;  -11.077;53797.773
558.380;45700.680;  -11.108;56145.984
558.964;45946.109;   -9.057;57277.930
559.548;47089.801;   -6.977;56459.641
560.132;45463.785;  -11.457;54434.543
560.716;44219.816;  -11.378;54800.617
561.300;45330.367;   -9.577;57606.945
561.884;46333.176;   -7.127;58972.445
562.467;44878.574;   -7.118;57327.570
563.051;44278.711;  -13.358;54962.434
563.635;45245.340;  -10.178;52594.473
564.219;45291.980;   -7.837;50610.410
564.802;46128.434;  -11.398;49551.180
565.386;46210.387;  -12.788;48370.953
565.969;45630.234;   -9.077;48178.871
566.553;45042.262;   -6.207;49957.305
567.136;45292.082;   -8.568;50369.594
567.720;41418.859;  -11.868;49492.004
568.303;39266.605;   -8.268;50616.352
568.887;39412.336;   -8.698;50727.148
569.470;39599.102;   -6.808;51698.379
570.053;38206.246;  -13.188;52122.078
570.637;36718.945;  -12.037;52536.438
571.220;36473.590;   -8.577;51186.098
571.803;37071.070;   -8.498;51032.762
572.386;39596.043;  -10.498;49609.887
572.969;42036.695;   -9.388;48285.926
573.552;39789.031;   -8.338;47624.285
574.135;38370.645;   -8.518;45498.641
574.718;35879.707;  -13.628;41970.434
575.301;34834.055;  -10.893;41447.137
575.884;33788.398;   -8.158;40923.836
576.467;35059.973;  -10.328;45267.723
577.050;37274.199;  -13.058;48175.543
577.633;38775.258;   -9.458;47729.328
578.216;37651.219;   -8.928;47579.793
578.799;36668.695;   -9.358;47820.996
579.381;35456.262;  -11.388;48115.551
579.964;33779.063;  -11.718;47333.766
580.547;35482.840;   -8.588;46668.969
581.129;36658.629;   -8.859;44466.141
581.712;37326.855;  -10.729;44164.922
582.294;37944.102;  -11.118;46477.855
582.877;37829.090;   -5.218;48244.254
583.459;35156.684;   -8.679;47437.895
584.042;33304.508;  -10.709;46943.219
584.624;34140.105;  -11.669;46792.227
585.206;33482.031;   -8.218;46557.250
585.789;33469.082;  -10.569;45793.773
586.371;36361.133;  -11.859;43836.391
586.953;36866.488;  -10.719;42972.492
587.536;38175.434;   -7.198;42487.211
588.118;38037.117;   -8.720;42086.414
588.700;34612.887;  -10.439;43389.930
589.282;33762.348;   -9.198;43646.039
589.864;34415.332;   -9.199;43438.109
590.446;35307.117;  -11.319;43151.926
591.028;35300.520;  -11.159;42781.867
591.610;34375.055;  -11.779;42839.098
592.192;31906.857;   -7.668;42820.402
592.774;30447.463;  -11.949;40724.277
593.356;29136.654;  -12.129;39874.789
593.937;28068.852;  -10.669;39980.648
594.519;30173.561;   -6.509;42069.633
595.101;32485.107;  -10.849;42976.031
