gmr_right
Integration time [ms]: 238.412
Averaging Nr. [scans]: 40
Smoothing Nr. [pixels]: 0
Data measured with spectrometer [name]: 7414430SP
Wave   ;Sample   ;Dark     ;Reference
[nm]   ;[counts] ;[counts] ;[counts] 

288.544;  498.422;  332.182;    6.613
289.143;  439.866;  271.583;   14.216
289.742;  521.751;  358.283;   11.816
290.341;  497.838;  338.184;   -4.936
290.940;  464.141;  301.359;    0.852
291.538;  546.833;  386.909;    1.792
292.137;  496.146;  339.183;    6.262
292.736;  606.488;  448.984;    8.164
293.335;  466.409;  303.109;   -6.418
293.934;  490.758;  331.034;   -2.904
294.532;  641.255;  479.809;   -5.162
295.131;  523.265;  376.861;  -10.283
295.730;  513.522;  361.060;  -16.141
296.328;  499.535;  345.711;  -14.740
296.927;  490.371;  342.761;   -8.768
297.525;  494.373;  342.961;  -15.255
298.124;  417.394;  272.787;  -22.063
298.722;  482.740;  336.861;  -14.796
299.321;  448.108;  303.761;  -10.466
299.919;  472.278;  329.786;  -10.979
300.518;  442.744;  293.262;  -12.077
301.116;  441.149;  297.361;  -13.509
301.715;  460.268;  315.411;  -11.939
302.313;  445.168;  306.661;  -15.424
302.911;  464.144;  329.612;  -19.833
303.509;  566.733;  439.211;   -3.567
304.108;  473.129;  342.436;   -9.553
304.706;  497.340;  367.686;   -8.582
305.304;  499.317;  366.712;  -12.348
305.902;  485.151;  359.286;  -14.411
306.500;  458.547;  325.311;   -7.194
307.098;  472.816;  342.011;   -9.322
307.696;  487.474;  361.986;  -19.192
308.294;  454.075;  331.561;   -9.736
308.892;  474.986;  349.686;  -15.482
309.490;  440.141;  314.911;  -14.107
310.088;  489.932;  372.612;  -15.862
310.686;  506.244;  389.461;  -10.781
311.284;  476.205;  356.336;  -14.878
311.882;  447.973;  336.862;   -9.948
312.480;  434.889;  321.162;  -15.503
313.078;  495.621;  388.612;  -17.262
313.675;  423.222;  320.411;   -3.694
314.273;  485.875;  384.962;  -18.246
314.871;  368.822;  268.837;  -15.190
315.468;  400.894;  299.362;  -12.633
316.066;  426.800;  321.511;   -5.765
316.664;  400.368;  302.362;  -14.317
317.261;  545.303;  448.487;   -8.677
317.859;  467.595;  378.637;  -11.804
318.456;  499.745;  411.961;   -3.107
319.054;  468.352;  378.962;   -3.062
319.651;  460.514;  371.737;   -6.706
320.249;  481.939;  398.562;   -5.206
320.846;  422.817;  345.061;   -4.679
321.443;  497.162;  418.661;   -7.920
322.041;  484.212;  400.187;  -14.105
322.638;  419.009;  339.787;   -6.263
323.235;  395.918;  314.961;   -7.424
323.833;  438.215;  363.186;  -14.765
324.430;  362.335;  280.436;  -10.550
325.027;  516.331;  440.611;   -9.951
325.624;  380.257;  298.761;   -3.712
326.221;  406.492;  318.936;   -9.368
326.818;  479.027;  400.711;   -5.637
327.415;  428.819;  346.260;   -6.699
328.012;  402.726;  319.885;   -5.713
328.609;  426.344;  339.260;   -9.983
329.206;  453.477;  366.561;   -7.154
329.803;  429.596;  339.636;   -1.682
330.400;  410.408;  313.485;   -2.741
330.997;  472.089;  377.636;   -4.339
331.594;  456.926;  363.311;  -10.278
332.191;  423.288;  324.736;   -6.967
332.787;  484.482;  386.261;   -0.480
333.384;  436.587;  342.112;  -10.333
333.981;  473.922;  375.163;  -19.900
334.578;  407.200;  310.587;  -19.816
335.174;  420.477;  319.387;  -15.844
335.771;  480.111;  384.438;  -12.670
336.367;  407.871;  320.113;  -21.124
336.964;  458.383;  369.313;  -18.226
337.561;  420.979;  329.313;  -13.311
338.157;  518.967;  432.764;  -19.006
338.754;  454.621;  371.839;  -19.418
339.350;  409.118;  324.864;  -29.433
339.946;  440.984;  348.714;  -16.622
340.543;  478.856;  399.465;  -16.744
341.139;  400.831;  331.215;  -21.841
341.735;  434.201;  363.566;  -25.012
342.332;  385.062;  316.015;  -19.156
342.928;  450.870;  376.415;  -20.443
343.524;  436.509;  357.341;  -14.397
344.120;  416.496;  353.591;  -20.654
344.716;  400.297;  332.640;   -5.730
345.313;  447.968;  378.515;  -10.929
345.909;  343.464;  276.840;  -19.843
346.505;  418.005;  349.565;  -19.645
347.101;  464.434;  394.639;   -9.618
347.697;  447.894;  377.889;  -10.305
348.293;  346.798;  275.590;  -23.189
348.889;  415.692;  352.389;  -18.418
349.485;  379.223;  316.289;  -10.476
350.081;  433.157;  364.839;  -17.320
350.676;  385.775;  319.940;  -21.088
351.272;  453.771;  385.314;  -12.821
351.868;  432.372;  359.189;  -13.165
352.464;  410.318;  339.314;  -12.464
353.059;  368.572;  297.664;  -22.547
353.655;  439.829;  371.639;   -9.379
354.251;  426.678;  356.313;   -8.266
354.846;  415.509;  350.714;  -17.705
355.442;  426.157;  355.915;   -9.317
356.038;  419.197;  352.164;  -11.049
356.633;  411.990;  340.389;  -10.006
357.229;  405.653;  340.089;  -13.120
357.824;  399.849;  327.589;  -15.647
358.420;  379.717;  310.939;  -19.204
359.015;  387.272;  318.914;  -12.263
359.610;  434.438;  365.289;  -16.421
360.206;  343.277;  270.590;  -20.074
360.801;  358.695;  291.064;  -13.277
361.396;  410.909;  343.139;   -5.822
361.992;  376.149;  306.264;  -11.247
362.587;  375.896;  308.515;  -21.502
363.182;  388.368;  322.764;   -7.461
363.777;  416.723;  351.864;   -8.719
364.372;  421.473;  358.189;  -14.590
364.967;  389.287;  321.715;  -15.145
365.563;  462.192;  388.039;   -7.192
366.158;  390.918;  320.264;   -5.662
366.753;  370.062;  295.314;   -8.378
367.348;  421.975;  357.064;  -14.990
367.942;  391.144;  327.764;   -6.005
368.537;  426.100;  361.689;  -11.504
369.132;  403.050;  329.614;  -10.576
369.727;  362.260;  298.440;  -12.573
370.322;  336.806;  266.940;  -11.560
370.917;  411.275;  339.490;  -10.388
371.511;  501.437;  427.164;   -9.161
372.106;  448.212;  379.790;  -10.245
372.701;  336.475;  272.315;  -10.158
373.296;  495.909;  427.564;   -4.719
373.890;  370.696;  307.915;  -11.802
374.485;  396.263;  337.115;  -13.500
375.079;  430.131;  362.789;   -6.276
375.674;  470.257;  401.664;   -0.447
376.268;  401.330;  332.240;   -6.916
376.863;  335.994;  276.716;  -14.483
377.457;  384.421;  314.690;   -6.903
378.052;  444.720;  374.315;   -9.844
378.646;  433.194;  370.840;  -12.601
379.240;  421.870;  351.240;  -14.715
379.835;  373.030;  308.715;  -12.331
380.429;  327.558;  266.490;   -9.074
381.023;  452.795;  393.115;   -1.729
381.617;  394.170;  332.440;  -13.714
382.212;  401.187;  334.815;   -7.060
382.806;  440.046;  377.590;   -2.303
383.400;  391.265;  331.115;   -0.815
383.994;  388.016;  329.140;   -4.429
384.588;  411.585;  348.039;   -6.261
385.182;  430.798;  362.014;    0.008
385.776;  418.778;  356.039;   -3.247
386.370;  403.030;  341.465;   -1.030
386.964;  399.262;  342.840;   -1.346
387.558;  351.746;  293.714;   -2.020
388.152;  397.691;  343.690;   -5.345
388.745;  476.916;  419.915;   -2.774
389.339;  440.437;  385.039;    3.510
389.933;  405.755;  347.289;    5.280
390.527;  505.660;  452.139;    2.610
391.120;  341.147;  295.940;   -7.914
391.714;  413.073;  363.840;   -1.903
392.308;  460.112;  405.564;    6.023
392.901;  379.263;  324.365;   -4.103
393.495;  349.467;  301.415;    3.284
394.089;  446.201;  399.790;    8.655
394.682;  407.977;  361.290;    2.312
395.275;  424.711;  373.240;   -7.402
395.869;  392.498;  342.490;   -1.072
396.462;  363.874;  315.340;    6.454
397.056;  456.413;  403.889;    8.494
397.649;  429.109;  381.015;    1.599
398.242;  417.520;  373.064;    3.153
398.836;  450.611;  402.914;   11.395
399.429;  364.746;  324.289;   14.695
400.022;  385.837;  345.590;    3.627
400.615;  471.788;  432.340;    8.383
401.208;  401.504;  354.989;   13.295
401.802;  404.544;  365.940;    6.211
402.395;  401.462;  361.290;    7.227
402.988;  408.003;  362.265;    2.700
403.581;  376.116;  336.689;   11.225
404.174;  399.983;  354.064;   18.922
404.767;  374.651;  339.265;   14.169
405.360;  361.050;  326.690;    8.999
405.953;  438.529;  403.039;   13.138
406.545;  419.410;  377.889;   13.937
407.138;  354.391;  313.990;   10.869
407.731;  359.993;  317.039;   12.768
408.324;  383.137;  343.789;   22.921
408.917;  395.923;  359.814;   15.308
409.509;  431.564;  395.314;   12.239
410.102;  371.241;  340.165;   13.741
410.695;  384.038;  347.989;   20.249
411.287;  345.421;  311.239;   21.793
411.880;  341.515;  302.339;   22.965
412.472;  350.324;  318.389;   15.082
413.065;  365.891;  336.289;   23.423
413.657;  334.544;  298.039;   21.077
414.250;  371.932;  336.714;   12.349
414.842;  385.754;  352.064;   20.423
415.434;  327.204;  296.714;   19.906
416.027;  370.142;  339.988;   26.574
416.619;  408.002;  384.414;   15.705
417.211;  338.246;  309.039;   17.791
417.804;  357.447;  325.263;   30.244
418.396;  347.790;  319.364;   24.177
418.988;  374.891;  348.488;   24.904
419.580;  323.425;  292.489;   20.692
420.172;  312.809;  278.713;   22.275
420.764;  380.704;  355.763;   26.773
421.356;  365.364;  338.413;   25.731
421.948;  385.829;  359.838;   24.876
422.540;  385.994;  355.188;   30.042
423.132;  343.257;  313.387;   32.728
423.724;  318.789;  290.788;   21.317
424.316;  351.334;  323.238;   29.359
424.908;  339.839;  304.287;   28.798
425.500;  367.805;  335.712;   30.512
426.092;  367.903;  336.912;   26.741
426.683;  395.445;  362.463;   27.029
427.275;  369.674;  336.387;   32.611
427.867;  380.605;  351.337;   33.796
428.458;  414.181;  385.937;   34.453
429.050;  390.994;  356.687;   34.255
429.642;  423.220;  391.712;   39.082
430.233;  322.117;  287.987;   41.138
430.825;  418.858;  384.287;   31.581
431.416;  398.254;  366.212;   35.755
432.008;  365.212;  337.812;   40.566
432.599;  370.040;  335.336;   46.322
433.190;  364.591;  333.212;   46.897
433.782;  333.798;  302.337;   41.069
434.373;  505.037;  470.836;   48.778
434.964;  340.516;  307.636;   50.078
435.556;  362.397;  329.587;   52.381
436.147;  429.285;  392.887;   38.251
436.738;  398.127;  360.061;   47.237
437.329;  408.599;  372.511;   61.304
437.920;  376.255;  345.062;   48.611
438.511;  316.178;  279.837;   44.910
439.103;  353.686;  315.036;   62.404
439.694;  382.859;  350.436;   63.075
440.285;  442.879;  400.436;   61.033
440.876;  482.158;  444.436;   57.249
441.466;  324.265;  290.086;   61.306
442.057;  380.376;  331.460;   65.773
442.648;  427.103;  386.736;   65.676
443.239;  349.422;  312.761;   55.963
443.830;  402.575;  361.860;   69.631
444.421;  374.579;  328.660;   69.943
445.011;  393.797;  350.386;   72.791
445.602;  423.314;  379.461;   68.848
446.193;  275.239;  228.810;   80.044
446.783;  357.334;  313.585;   82.599
447.374;  393.127;  357.311;   77.419
447.964;  407.996;  362.536;   72.605
448.555;  472.776;  424.460;   82.041
449.145;  373.946;  330.310;   76.230
449.736;  458.416;  414.985;   75.545
450.326;  413.556;  359.935;   67.945
450.917;  383.740;  333.685;   77.598
451.507;  343.335;  290.635;   68.027
452.097;  429.595;  383.935;   67.771
452.688;  421.563;  368.435;   62.884
453.278;  319.219;  275.160;   65.512
453.868;  451.569;  403.809;   71.796
454.458;  370.149;  318.910;   60.956
455.048;  406.901;  353.535;   62.356
455.639;  324.517;  268.759;   58.782
456.229;  407.146;  346.284;   65.209
456.819;  426.161;  368.959;   61.466
457.409;  440.499;  386.634;   59.967
457.999;  419.123;  361.034;   58.093
458.589;  385.828;  333.359;   59.536
459.179;  410.617;  349.659;   55.994
459.769;  358.191;  298.609;   43.624
460.358;  452.954;  390.959;   46.978
460.948;  391.310;  328.684;   49.821
461.538;  380.834;  310.534;   54.678
462.128;  379.246;  315.259;   49.309
462.717;  407.365;  337.158;   52.774
463.307;  409.412;  332.983;   48.101
463.897;  378.335;  311.684;   45.606
464.486;  485.483;  417.409;   45.010
465.076;  421.095;  353.758;   45.519
465.666;  370.161;  297.008;   50.058
466.255;  454.663;  380.084;   44.463
466.845;  381.500;  313.384;   41.206
467.434;  416.432;  343.333;   44.847
468.023;  374.234;  300.133;   46.760
468.613;  410.303;  335.959;   39.736
469.202;  368.575;  295.883;   46.461
469.791;  423.505;  345.133;   47.944
470.381;  427.732;  347.033;   47.529
470.970;  402.108;  332.058;   43.773
471.559;  421.121;  342.008;   41.646
472.148;  388.053;  303.683;   37.914
472.738;  437.231;  356.482;   48.071
473.327;  363.783;  281.358;   47.871
473.916;  421.887;  344.183;   37.716
474.505;  433.913;  347.732;   40.256
475.094;  468.658;  376.407;   43.269
475.683;  461.272;  365.032;   36.499
476.272;  423.588;  330.607;   44.542
476.861;  411.409;  312.082;   42.297
477.449;  422.712;  321.156;   46.878
478.038;  395.554;  303.132;   35.156
478.627;  408.432;  312.283;   42.514
479.216;  440.786;  339.082;   43.937
479.805;  450.176;  342.281;   51.393
480.393;  584.873;  478.332;   53.239
480.982;  505.860;  400.307;   38.955
481.571;  497.454;  389.631;   45.436
482.159;  409.601;  293.706;   51.007
482.748;  480.134;  366.357;   49.695
483.336;  502.222;  381.181;   48.280
483.925;  451.710;  334.082;   47.166
484.513;  446.205;  315.681;   55.404
485.102;  467.415;  343.207;   54.238
485.690;  584.283;  454.581;   55.748
486.278;  574.342;  440.606;   55.934
486.867;  474.846;  333.306;   57.106
487.455;  525.139;  388.156;   56.979
488.043;  433.908;  294.606;   57.564
488.631;  582.216;  434.606;   57.432
489.220;  533.270;  375.931;   63.646
489.808;  436.687;  280.831;   65.449
490.396;  538.151;  376.381;   61.977
490.984;  478.077;  312.181;   68.834
491.572;  549.851;  372.756;   70.775
492.160;  534.633;  353.331;   67.564
492.748;  513.388;  321.856;   66.808
493.336;  596.468;  385.406;   79.747
493.924;  560.276;  328.880;   88.688
494.512;  621.867;  377.506;   84.120
495.100;  645.066;  368.731;   86.250
495.687;  697.865;  385.755;  103.074
496.275;  666.423;  306.906;  108.717
496.863;  737.352;  320.381;  107.035
497.451;  823.284;  318.181;  117.993
498.038;  928.017;  337.580;  120.116
498.626; 1006.603;  323.705;  143.059
499.214; 1154.742;  350.431;  153.434
499.801; 1278.304;  340.156;  175.121
500.389; 1398.496;  273.880;  185.617
500.976; 1662.694;  353.806;  215.789
501.564; 1908.590;  344.506;  240.321
502.151; 2019.336;  238.081;  267.007
502.738; 2282.285;  318.731;  317.961
503.326; 2628.481;  325.180;  361.216
503.913; 3002.208;  343.006;  401.433
504.500; 3373.480;  355.181;  446.492
505.088; 3720.941;  301.106;  512.063
505.675; 4275.559;  330.580;  586.387
506.262; 4803.228;  325.506;  671.021
506.849; 5397.372;  335.756;  759.062
507.436; 6055.271;  380.255;  849.788
508.023; 6590.613;  334.181;  944.288
508.610; 7092.595;  374.231; 1020.690
509.197; 7732.212;  357.257; 1089.052
509.784; 8446.284;  331.206; 1133.776
510.371; 9193.213;  273.280; 1165.501
510.958;10171.606;  344.181; 1251.735
511.545;10281.329;  392.581; 1350.248
512.132;10452.620;  338.105; 1525.945
512.719;11021.458;  294.131; 1834.933
513.305;12005.471;  302.831; 1965.349
513.892;13179.300;  390.881; 1963.265
514.479;14158.370;  344.106; 2046.446
515.066;15234.838;  381.056; 2252.803
515.652;16241.058;  342.181; 2567.247
516.239;17203.939;  367.031; 2636.919
516.825;17528.314;  280.781; 2482.304
517.412;17669.908;  440.656; 2427.031
517.998;17332.758;  326.831; 2540.463
518.585;17214.910;  321.031; 2609.007
519.171;18194.375;  344.230; 2842.088
519.758;20142.186;  289.856; 3090.703
520.344;21640.484;  375.481; 3176.076
520.930;22026.648;  299.831; 3295.037
521.516;22783.643;  355.580; 3500.959
522.103;22732.305;  395.056; 3736.704
522.689;23503.484;  322.431; 3971.022
523.275;24542.150;  381.706; 4213.778
523.861;24527.938;  331.131; 4190.361
524.447;24493.252;  380.380; 4070.602
525.033;25189.072;  381.681; 4088.892
525.619;25004.361;  303.906; 4416.851
526.205;25787.096;  288.856; 4836.835
526.791;27389.207;  321.731; 4885.903
527.377;28103.582;  315.431; 4544.907
527.963;28484.121;  343.282; 4321.995
528.549;27732.170;  352.506; 4473.979
529.135;26576.752;  304.081; 4788.663
529.721;25634.674;  338.481; 4888.577
530.306;26272.119;  466.581; 4775.779
530.892;27490.543;  318.656; 4793.906
531.478;28491.377;  312.706; 4956.948
532.063;30017.793;  298.081; 5136.936
532.649;31493.826;  423.182; 5336.867
533.235;33042.238;  301.356; 5748.092
533.820;34354.645;  387.506; 6456.875
534.406;34280.516;  323.132; 6590.167
534.991;33703.047;  297.731; 6179.622
535.576;32819.539;  323.756; 6098.691
536.162;32792.371;  473.231; 6441.234
536.747;33400.422;  284.632; 6816.224
537.333;34606.559;  300.207; 6889.752
537.918;34115.398;  334.732; 7154.280
538.503;34771.758;  313.831; 7150.848
539.088;35104.867;  347.831; 7253.308
539.673;34501.285;  326.957; 7625.180
540.259;33514.398;  310.081; 8226.793
540.844;34776.121;  268.181; 8745.092
541.429;34850.922;  415.182; 8762.553
542.014;34585.113;  283.257; 8871.497
542.599;35795.813;  349.206; 8886.008
543.184;37635.801;  292.582; 9079.139
543.769;37483.570;  299.932; 9076.182
544.354;36495.555;  316.832; 8354.081
544.938;34767.191;  346.957; 8236.809
545.523;33422.680;  408.931; 8222.179
546.108;34510.766;  333.957; 8114.082
546.693;34924.586;  329.582; 8535.912
547.278;34498.621;  329.756; 9238.322
547.862;33379.086;  335.231; 9034.405
548.447;32620.826;  375.007; 7795.011
549.031;32484.643;  323.407; 7485.099
549.616;32886.926;  345.556; 7626.308
550.201;33490.734;  317.957; 7627.909
550.785;34782.910;  360.657; 7859.125
551.370;36478.637;  285.157; 7990.654
551.954;37169.730;  376.732; 8196.468
552.538;37729.367;  363.782; 7959.495
553.123;37160.383;  305.957; 7964.826
553.707;35954.023;  321.858; 8515.957
554.291;35134.195;  389.882; 8724.024
554.876;35023.648;  368.932; 8524.211
555.460;34686.586;  314.232; 8704.456
556.044;35064.402;  312.058; 9141.473
556.628;34379.969;  331.082; 9250.197
557.212;33877.719;  381.732; 9444.237
557.796;32814.402;  322.682; 9379.783
558.380;34445.031;  349.858; 9353.658
558.964;34382.398;  337.832; 9210.310
559.548;33278.891;  285.732; 8475.153
560.132;33186.602;  317.732; 7954.084
560.716;33592.102;  287.633; 7489.529
561.300;35134.555;  293.532; 7211.952
561.884;35992.152;  356.157; 7141.313
562.467;34712.082;  357.083; 7155.386
563.051;34382.816;  332.158; 7323.158
563.635;34739.258;  321.708; 7709.114
564.219;34488.824;  329.757; 7678.855
564.802;34302.449;  354.833; 7376.187
565.386;33492.934;  337.983; 7054.372
565.969;33029.059;  393.007; 6589.196
566.553;32255.906;  431.132; 6279.371
567.136;31817.459;  387.258; 5967.930
567.720;32150.676;  333.033; 5660.703
568.303;32089.615;  350.983; 5648.615
568.887;32682.400;  336.083; 5618.443
569.470;32490.002;  347.808; 5411.875
570.053;32562.000;  362.008; 5149.274
570.637;32993.645;  311.582; 5122.798
571.220;33242.656;  370.182; 4957.369
571.803;32532.533;  431.408; 4933.018
572.386;32489.557;  321.158; 4840.973
572.969;33163.305;  324.383; 4592.886
573.552;34007.641;  327.358; 4348.387
574.135;31495.701;  301.458; 4002.290
574.718;26863.346;  306.533; 3654.773
575.301;26460.355;  305.583; 3502.288
575.884;26057.363;  304.633; 3349.803
576.467;27341.352;  382.608; 3191.403
577.050;28473.951;  344.783; 3062.418
577.633;29544.771;  419.133; 3214.200
578.216;30314.902;  323.983; 3284.889
578.799;30108.623;  325.158; 3189.777
579.381;30398.416;  437.358; 3064.502
579.964;30636.373;  306.433; 2888.357
580.547;30920.275;  343.283; 2905.760
581.129;31594.639;  402.609; 2966.849
581.712;33400.973;  353.784; 2887.292
582.294;33924.871;  340.783; 2771.631
582.877;33786.059;  440.133; 2711.602
583.459;33309.027;  337.109; 2577.049
584.042;31792.441;  331.484; 2454.707
584.624;30748.441;  309.609; 2305.893
585.206;29768.178;  266.683; 2189.546
585.789;28284.781;  312.459; 2112.577
586.371;26802.039;  356.459; 2153.065
586.953;26977.418;  368.459; 2197.806
587.536;28306.326;  400.958; 2105.489
588.118;28755.215;  328.560; 1963.911
588.700;29528.002;  402.784; 1843.179
589.282;29403.764;  356.533; 1813.834
589.864;28960.467;  339.384; 1777.620
590.446;29154.793;  270.159; 1733.780
591.028;29678.623;  335.084; 1676.008
591.610;30569.920;  269.934; 1631.649
592.192;29996.721;  343.883; 1632.362
592.774;28235.574;  296.959; 1569.507
593.356;26664.074;  308.434; 1524.539
593.937;26561.139;  305.209; 1569.720
594.519;27370.748;  385.159; 1569.049
595.101;28564.732;  280.159; 1545.452
